Data from Absorbance__50__14-33-59-405.txt Node

Date: Wed Apr 28 14:33:59 CEST 2021
User: thoma
Spectrometer: FLMS05507
Trigger mode: 0
Integration Time (sec): 6,810000E-3
Scans to average: 10
Electric dark correction enabled: true
Nonlinearity correction enabled: false
Boxcar width: 0
XAxis mode: Wavelengths
Number of Pixels in Spectrum: 2048
>>>>>Begin Spectral Data<<<<<
188,96	-0
189,424	-0
189,887	-0
190,351	-0
190,815	-0,1
191,279	-0,2
191,742	-0
192,206	-0
192,669	-0,03
193,133	0,05
193,596	-0
194,06	-0,88
194,523	0,06
194,987	0,29
195,45	-1,01
195,913	-0,15
196,376	0,12
196,84	0,45
197,303	-0,88
197,766	-0,13
198,229	-0,44
198,692	0,28
199,155	0,39
199,618	-0
200,081	2,59
200,543	2,76
201,006	2,61
201,469	2,55
201,932	2,77
202,394	2,62
202,857	2,61
203,32	2,85
203,782	2,69
204,245	2,65
204,707	2,97
205,169	2,77
205,632	2,79
206,094	2,66
206,556	2,76
207,019	2,95
207,481	2,88
207,943	2,75
208,405	3,24
208,867	2,72
209,329	2,97
209,791	2,87
210,253	3,45
210,715	2,89
211,177	2,81
211,639	2,74
212,1	2,91
212,562	2,69
213,024	2,84
213,485	2,96
213,947	2,74
214,408	3,07
214,87	3
215,331	2,94
215,793	2,88
216,254	2,84
216,715	2,72
217,177	2,96
217,638	3,17
218,099	2,91
218,56	2,89
219,021	3,21
219,482	2,97
219,944	2,77
220,404	2,98
220,865	2,91
221,326	2,95
221,787	2,86
222,248	3,07
222,709	2,95
223,169	2,96
223,63	3,1
224,091	3,53
224,551	2,9
225,012	2,93
225,472	2,98
225,933	3,22
226,393	2,83
226,854	2,88
227,314	2,72
227,774	2,92
228,234	3,11
228,695	3,17
229,155	2,89
229,615	2,96
230,075	3,1
230,535	2,84
230,995	2,94
231,455	3,1
231,915	2,91
232,375	2,97
232,834	2,88
233,294	2,83
233,754	3,02
234,214	3,03
234,673	2,74
235,133	2,98
235,592	2,95
236,052	2,97
236,511	3,13
236,971	3
237,43	3
237,889	2,91
238,349	2,87
238,808	3,48
239,267	2,97
239,726	2,78
240,185	3,04
240,644	2,77
241,103	2,81
241,562	2,86
242,021	2,92
242,48	2,87
242,939	3,25
243,398	2,91
243,857	2,82
244,315	3,23
244,774	2,93
245,233	2,82
245,691	3,12
246,15	2,8
246,608	2,75
247,067	2,85
247,525	2,88
247,983	2,88
248,442	2,88
248,9	2,84
249,358	3,32
249,816	2,78
250,274	2,8
250,733	2,98
251,191	3,02
251,649	2,77
252,107	2,92
252,564	2,95
253,022	3,03
253,48	2,81
253,938	3,11
254,396	3,12
254,853	2,89
255,311	2,87
255,769	2,76
256,226	2,88
256,684	3,03
257,141	2,93
257,599	2,89
258,056	2,74
258,513	2,73
258,971	3,03
259,428	2,72
259,885	2,71
260,342	3
260,799	2,65
261,256	2,8
261,714	2,97
262,171	2,97
262,627	2,88
263,084	2,98
263,541	3,96
263,998	3,13
264,455	2,65
264,912	2,65
265,368	2,69
265,825	2,96
266,281	2,6
266,738	2,63
267,194	3,02
267,651	2,87
268,107	2,78
268,564	2,66
269,02	2,74
269,476	2,6
269,933	2,71
270,389	2,83
270,845	2,65
271,301	2,83
271,757	2,61
272,213	2,77
272,669	2,68
273,125	2,75
273,581	2,59
274,037	2,59
274,492	2,57
274,948	2,76
275,404	2,59
275,86	2,57
276,315	2,85
276,771	2,61
277,226	2,79
277,682	2,48
278,137	2,62
278,593	2,5
279,048	2,65
279,503	2,85
279,958	2,61
280,414	2,42
280,869	2,49
281,324	2,7
281,779	2,85
282,234	2,41
282,689	2,58
283,144	2,66
283,599	2,42
284,054	2,55
284,508	2,58
284,963	2,4
285,418	2,37
285,873	2,64
286,327	2,4
286,782	2,29
287,236	2,45
287,691	2,32
288,145	2,2
288,6	2,21
289,054	2,23
289,508	2,2
289,963	2,17
290,417	2,12
290,871	2,07
291,325	1,99
291,779	1,96
292,233	1,87
292,687	1,84
293,141	1,78
293,595	1,7
294,049	1,67
294,503	1,62
294,957	1,56
295,41	1,5
295,864	1,45
296,318	1,41
296,771	1,37
297,225	1,31
297,678	1,26
298,132	1,22
298,585	1,18
299,039	1,15
299,492	1,09
299,945	1,07
300,398	1,03
300,852	0,99
301,305	0,96
301,758	0,93
302,211	0,9
302,664	0,86
303,117	0,83
303,57	0,81
304,023	0,79
304,476	0,76
304,928	0,74
305,381	0,71
305,834	0,69
306,286	0,67
306,739	0,65
307,192	0,62
307,644	0,61
308,097	0,59
308,549	0,57
309,001	0,55
309,454	0,54
309,906	0,52
310,358	0,5
310,81	0,49
311,263	0,48
311,715	0,47
312,167	0,45
312,619	0,44
313,071	0,43
313,523	0,42
313,975	0,41
314,426	0,4
314,878	0,39
315,33	0,39
315,782	0,37
316,233	0,37
316,685	0,36
317,136	0,35
317,588	0,34
318,039	0,34
318,491	0,33
318,942	0,32
319,393	0,31
319,845	0,31
320,296	0,3
320,747	0,3
321,198	0,29
321,649	0,29
322,101	0,28
322,552	0,28
323,003	0,27
323,453	0,27
323,904	0,27
324,355	0,26
324,806	0,26
325,257	0,25
325,707	0,25
326,158	0,25
326,609	0,24
327,059	0,24
327,51	0,24
327,96	0,23
328,411	0,23
328,861	0,23
329,311	0,23
329,762	0,23
330,212	0,22
330,662	0,22
331,112	0,22
331,562	0,21
332,012	0,21
332,462	0,21
332,912	0,21
333,362	0,21
333,812	0,21
334,262	0,2
334,712	0,2
335,161	0,2
335,611	0,2
336,061	0,2
336,51	0,2
336,96	0,19
337,409	0,19
337,859	0,19
338,308	0,19
338,758	0,19
339,207	0,19
339,656	0,18
340,105	0,18
340,555	0,18
341,004	0,18
341,453	0,18
341,902	0,18
342,351	0,18
342,8	0,19
343,249	0,18
343,698	0,18
344,146	0,18
344,595	0,18
345,044	0,18
345,493	0,17
345,941	0,17
346,39	0,18
346,838	0,17
347,287	0,18
347,735	0,17
348,184	0,17
348,632	0,17
349,08	0,17
349,529	0,17
349,977	0,17
350,425	0,18
350,873	0,17
351,321	0,17
351,769	0,17
352,217	0,17
352,665	0,17
353,113	0,17
353,561	0,17
354,009	0,17
354,456	0,16
354,904	0,16
355,352	0,16
355,799	0,16
356,247	0,17
356,694	0,17
357,142	0,16
357,589	0,17
358,037	0,17
358,484	0,16
358,931	0,16
359,379	0,16
359,826	0,16
360,273	0,17
360,72	0,16
361,167	0,16
361,614	0,16
362,061	0,17
362,508	0,16
362,955	0,16
363,402	0,16
363,848	0,16
364,295	0,16
364,742	0,16
365,188	0,16
365,635	0,16
366,082	0,16
366,528	0,16
366,975	0,16
367,421	0,16
367,867	0,16
368,314	0,15
368,76	0,15
369,206	0,16
369,652	0,15
370,098	0,16
370,545	0,16
370,991	0,16
371,437	0,16
371,882	0,16
372,328	0,16
372,774	0,15
373,22	0,16
373,666	0,15
374,111	0,15
374,557	0,16
375,003	0,16
375,448	0,16
375,894	0,16
376,339	0,16
376,785	0,15
377,23	0,16
377,675	0,16
378,121	0,16
378,566	0,16
379,011	0,15
379,456	0,16
379,901	0,15
380,346	0,16
380,791	0,15
381,236	0,15
381,681	0,16
382,126	0,15
382,571	0,16
383,016	0,16
383,461	0,16
383,905	0,16
384,35	0,16
384,794	0,16
385,239	0,15
385,683	0,15
386,128	0,15
386,572	0,15
387,017	0,15
387,461	0,15
387,905	0,15
388,349	0,16
388,794	0,15
389,238	0,15
389,682	0,15
390,126	0,15
390,57	0,15
391,014	0,16
391,457	0,16
391,901	0,15
392,345	0,15
392,789	0,15
393,233	0,15
393,676	0,15
394,12	0,16
394,563	0,15
395,007	0,15
395,45	0,16
395,894	0,15
396,337	0,15
396,78	0,15
397,224	0,16
397,667	0,15
398,11	0,16
398,553	0,15
398,996	0,15
399,439	0,15
399,882	0,15
400,325	0,15
400,768	0,15
401,211	0,15
401,654	0,15
402,096	0,15
402,539	0,16
402,982	0,16
403,424	0,15
403,867	0,16
404,309	0,16
404,752	0,15
405,194	0,16
405,637	0,16
406,079	0,16
406,521	0,15
406,963	0,15
407,406	0,15
407,848	0,15
408,29	0,16
408,732	0,16
409,174	0,15
409,616	0,15
410,058	0,15
410,499	0,16
410,941	0,16
411,383	0,15
411,825	0,16
412,266	0,16
412,708	0,15
413,15	0,16
413,591	0,16
414,033	0,16
414,474	0,15
414,915	0,15
415,357	0,15
415,798	0,16
416,239	0,16
416,68	0,16
417,121	0,16
417,563	0,15
418,004	0,15
418,445	0,16
418,885	0,16
419,326	0,15
419,767	0,16
420,208	0,16
420,649	0,16
421,089	0,16
421,53	0,16
421,971	0,15
422,411	0,16
422,852	0,15
423,292	0,15
423,733	0,15
424,173	0,15
424,613	0,15
425,054	0,15
425,494	0,16
425,934	0,16
426,374	0,16
426,814	0,16
427,254	0,16
427,694	0,15
428,134	0,16
428,574	0,16
429,014	0,15
429,454	0,16
429,893	0,17
430,333	0,16
430,773	0,15
431,212	0,16
431,652	0,16
432,091	0,15
432,531	0,15
432,97	0,16
433,41	0,16
433,849	0,16
434,288	0,16
434,727	0,16
435,167	0,16
435,606	0,16
436,045	0,16
436,484	0,16
436,923	0,16
437,362	0,16
437,801	0,16
438,239	0,16
438,678	0,16
439,117	0,16
439,556	0,16
439,994	0,17
440,433	0,16
440,871	0,17
441,31	0,16
441,748	0,16
442,187	0,17
442,625	0,16
443,063	0,16
443,502	0,16
443,94	0,16
444,378	0,16
444,816	0,16
445,254	0,16
445,692	0,16
446,13	0,17
446,568	0,17
447,006	0,16
447,444	0,16
447,881	0,17
448,319	0,16
448,757	0,16
449,194	0,16
449,632	0,16
450,07	0,16
450,507	0,16
450,944	0,16
451,382	0,17
451,819	0,16
452,256	0,17
452,694	0,17
453,131	0,17
453,568	0,17
454,005	0,16
454,442	0,17
454,879	0,17
455,316	0,17
455,753	0,17
456,19	0,17
456,627	0,17
457,063	0,17
457,5	0,17
457,937	0,17
458,373	0,17
458,81	0,17
459,246	0,17
459,683	0,17
460,119	0,17
460,556	0,17
460,992	0,17
461,428	0,17
461,864	0,17
462,301	0,17
462,737	0,16
463,173	0,17
463,609	0,17
464,045	0,17
464,481	0,17
464,917	0,17
465,352	0,17
465,788	0,17
466,224	0,17
466,66	0,17
467,095	0,17
467,531	0,17
467,966	0,18
468,402	0,17
468,837	0,17
469,273	0,17
469,708	0,17
470,143	0,17
470,578	0,17
471,014	0,17
471,449	0,17
471,884	0,18
472,319	0,17
472,754	0,18
473,189	0,17
473,624	0,18
474,059	0,17
474,493	0,18
474,928	0,18
475,363	0,18
475,797	0,18
476,232	0,18
476,667	0,18
477,101	0,17
477,536	0,18
477,97	0,18
478,404	0,18
478,839	0,18
479,273	0,18
479,707	0,18
480,141	0,18
480,575	0,18
481,009	0,18
481,444	0,18
481,877	0,18
482,311	0,18
482,745	0,18
483,179	0,18
483,613	0,18
484,047	0,18
484,48	0,18
484,914	0,18
485,347	0,18
485,781	0,18
486,214	0,18
486,648	0,18
487,081	0,18
487,515	0,18
487,948	0,18
488,381	0,18
488,814	0,18
489,247	0,18
489,68	0,18
490,113	0,19
490,546	0,18
490,979	0,18
491,412	0,19
491,845	0,19
492,278	0,19
492,711	0,19
493,143	0,19
493,576	0,18
494,009	0,18
494,441	0,18
494,874	0,19
495,306	0,18
495,738	0,18
496,171	0,19
496,603	0,19
497,035	0,19
497,467	0,18
497,9	0,19
498,332	0,18
498,764	0,19
499,196	0,18
499,628	0,19
500,06	0,19
500,491	0,19
500,923	0,19
501,355	0,19
501,787	0,19
502,218	0,19
502,65	0,19
503,081	0,19
503,513	0,19
503,944	0,18
504,376	0,19
504,807	0,19
505,238	0,19
505,67	0,19
506,101	0,19
506,532	0,19
506,963	0,19
507,394	0,19
507,825	0,19
508,256	0,19
508,687	0,19
509,118	0,19
509,549	0,2
509,979	0,19
510,41	0,19
510,841	0,19
511,271	0,2
511,702	0,19
512,132	0,19
512,563	0,19
512,993	0,19
513,424	0,19
513,854	0,19
514,284	0,19
514,714	0,2
515,145	0,2
515,575	0,19
516,005	0,19
516,435	0,19
516,865	0,2
517,295	0,2
517,724	0,2
518,154	0,2
518,584	0,2
519,014	0,2
519,443	0,2
519,873	0,2
520,303	0,2
520,732	0,2
521,161	0,2
521,591	0,2
522,02	0,2
522,45	0,2
522,879	0,2
523,308	0,2
523,737	0,2
524,166	0,2
524,595	0,2
525,024	0,2
525,453	0,2
525,882	0,2
526,311	0,2
526,74	0,2
527,169	0,2
527,597	0,2
528,026	0,2
528,455	0,2
528,883	0,2
529,312	0,21
529,74	0,2
530,168	0,2
530,597	0,21
531,025	0,21
531,453	0,21
531,882	0,21
532,31	0,21
532,738	0,2
533,166	0,21
533,594	0,21
534,022	0,21
534,45	0,21
534,878	0,21
535,305	0,21
535,733	0,21
536,161	0,21
536,588	0,21
537,016	0,21
537,444	0,21
537,871	0,21
538,299	0,21
538,726	0,21
539,153	0,21
539,581	0,21
540,008	0,21
540,435	0,21
540,862	0,22
541,289	0,21
541,716	0,21
542,143	0,21
542,57	0,21
542,997	0,22
543,424	0,22
543,851	0,22
544,277	0,22
544,704	0,22
545,131	0,22
545,557	0,22
545,984	0,22
546,41	0,22
546,837	0,22
547,263	0,22
547,69	0,22
548,116	0,22
548,542	0,22
548,968	0,22
549,394	0,22
549,82	0,22
550,246	0,22
550,672	0,22
551,098	0,23
551,524	0,22
551,95	0,23
552,376	0,23
552,802	0,23
553,227	0,23
553,653	0,23
554,078	0,23
554,504	0,23
554,929	0,23
555,355	0,23
555,78	0,23
556,206	0,23
556,631	0,23
557,056	0,23
557,481	0,23
557,906	0,24
558,331	0,24
558,756	0,23
559,181	0,23
559,606	0,23
560,031	0,24
560,456	0,24
560,881	0,24
561,305	0,24
561,73	0,24
562,155	0,24
562,579	0,24
563,004	0,24
563,428	0,24
563,853	0,24
564,277	0,24
564,701	0,24
565,126	0,25
565,55	0,25
565,974	0,25
566,398	0,25
566,822	0,25
567,246	0,25
567,67	0,25
568,094	0,25
568,518	0,25
568,941	0,25
569,365	0,25
569,789	0,25
570,213	0,25
570,636	0,25
571,06	0,25
571,483	0,26
571,907	0,26
572,33	0,26
572,753	0,26
573,177	0,26
573,6	0,26
574,023	0,26
574,446	0,26
574,869	0,26
575,292	0,26
575,715	0,26
576,138	0,26
576,561	0,27
576,984	0,27
577,407	0,27
577,829	0,27
578,252	0,27
578,675	0,27
579,097	0,27
579,52	0,27
579,942	0,27
580,364	0,27
580,787	0,28
581,209	0,28
581,631	0,27
582,054	0,28
582,476	0,27
582,898	0,28
583,32	0,28
583,742	0,28
584,164	0,28
584,586	0,29
585,008	0,29
585,429	0,29
585,851	0,29
586,273	0,29
586,694	0,29
587,116	0,29
587,538	0,3
587,959	0,29
588,38	0,3
588,802	0,3
589,223	0,3
589,644	0,31
590,066	0,31
590,487	0,31
590,908	0,31
591,329	0,31
591,75	0,31
592,171	0,32
592,592	0,32
593,013	0,32
593,434	0,32
593,854	0,32
594,275	0,32
594,696	0,32
595,116	0,33
595,537	0,33
595,957	0,33
596,378	0,33
596,798	0,34
597,218	0,34
597,639	0,34
598,059	0,34
598,479	0,34
598,899	0,34
599,319	0,34
599,739	0,34
600,159	0,34
600,579	0,34
600,999	0,35
601,419	0,35
601,839	0,35
602,259	0,35
602,678	0,35
603,098	0,36
603,517	0,36
603,937	0,36
604,356	0,36
604,776	0,36
605,195	0,36
605,614	0,37
606,034	0,37
606,453	0,37
606,872	0,37
607,291	0,37
607,71	0,37
608,129	0,38
608,548	0,38
608,967	0,38
609,386	0,39
609,805	0,39
610,223	0,39
610,642	0,4
611,061	0,4
611,479	0,4
611,898	0,4
612,316	0,4
612,735	0,41
613,153	0,41
613,571	0,41
613,99	0,41
614,408	0,42
614,826	0,42
615,244	0,43
615,662	0,43
616,08	0,43
616,498	0,43
616,916	0,44
617,334	0,44
617,752	0,44
618,169	0,44
618,587	0,44
619,005	0,45
619,422	0,45
619,84	0,45
620,257	0,46
620,675	0,46
621,092	0,46
621,509	0,47
621,927	0,47
622,344	0,47
622,761	0,47
623,178	0,48
623,595	0,48
624,012	0,48
624,429	0,49
624,846	0,49
625,263	0,49
625,68	0,5
626,097	0,5
626,513	0,5
626,93	0,51
627,346	0,51
627,763	0,51
628,179	0,52
628,596	0,52
629,012	0,52
629,429	0,52
629,845	0,53
630,261	0,54
630,677	0,54
631,093	0,54
631,509	0,55
631,925	0,55
632,341	0,55
632,757	0,55
633,173	0,56
633,589	0,56
634,005	0,56
634,42	0,57
634,836	0,57
635,252	0,58
635,667	0,59
636,083	0,58
636,498	0,59
636,913	0,59
637,329	0,59
637,744	0,6
638,159	0,6
638,574	0,61
638,99	0,61
639,405	0,62
639,82	0,62
640,235	0,63
640,65	0,63
641,064	0,63
641,479	0,63
641,894	0,64
642,309	0,65
642,723	0,64
643,138	0,65
643,552	0,66
643,967	0,66
644,381	0,66
644,796	0,66
645,21	0,67
645,624	0,68
646,038	0,68
646,453	0,68
646,867	0,69
647,281	0,7
647,695	0,7
648,109	0,71
648,523	0,71
648,936	0,71
649,35	0,72
649,764	0,72
650,178	0,72
650,591	0,73
651,005	0,74
651,418	0,74
651,832	0,75
652,245	0,75
652,659	0,76
653,072	0,77
653,485	0,76
653,898	0,77
654,312	0,78
654,725	0,78
655,138	0,78
655,551	0,78
655,964	0,79
656,377	0,8
656,789	0,8
657,202	0,8
657,615	0,81
658,028	0,82
658,44	0,82
658,853	0,83
659,265	0,83
659,678	0,84
660,09	0,85
660,503	0,85
660,915	0,85
661,327	0,86
661,739	0,86
662,152	0,87
662,564	0,87
662,976	0,88
663,388	0,88
663,8	0,89
664,211	0,89
664,623	0,91
665,035	0,91
665,447	0,91
665,858	0,92
666,27	0,92
666,682	0,93
667,093	0,93
667,505	0,94
667,916	0,94
668,327	0,95
668,739	0,96
669,15	0,96
669,561	0,96
669,972	0,97
670,383	0,97
670,794	0,98
671,205	0,99
671,616	0,99
672,027	1
672,438	1
672,849	1,01
673,259	1,01
673,67	1,02
674,08	1,02
674,491	1,03
674,901	1,03
675,312	1,05
675,722	1,05
676,133	1,06
676,543	1,06
676,953	1,07
677,363	1,07
677,773	1,09
678,183	1,08
678,593	1,09
679,003	1,09
679,413	1,11
679,823	1,11
680,233	1,11
680,643	1,13
681,052	1,13
681,462	1,13
681,872	1,13
682,281	1,15
682,691	1,16
683,1	1,15
683,509	1,17
683,919	1,16
684,328	1,18
684,737	1,18
685,146	1,19
685,555	1,19
685,964	1,2
686,373	1,21
686,782	1,21
687,191	1,22
687,6	1,22
688,009	1,23
688,417	1,24
688,826	1,24
689,235	1,24
689,643	1,25
690,052	1,25
690,46	1,27
690,869	1,27
691,277	1,28
691,685	1,29
692,093	1,29
692,502	1,3
692,91	1,3
693,318	1,31
693,726	1,32
694,134	1,31
694,542	1,34
694,949	1,34
695,357	1,35
695,765	1,35
696,173	1,35
696,58	1,34
696,988	1,37
697,395	1,38
697,803	1,37
698,21	1,38
698,618	1,39
699,025	1,39
699,432	1,4
699,839	1,41
700,247	1,42
700,654	1,43
701,061	1,43
701,468	1,44
701,875	1,45
702,281	1,45
702,688	1,46
703,095	1,46
703,502	1,49
703,908	1,47
704,315	1,48
704,722	1,48
705,128	1,5
705,534	1,49
705,941	1,51
706,347	1,5
706,753	1,51
707,16	1,5
707,566	1,53
707,972	1,52
708,378	1,55
708,784	1,56
709,19	1,52
709,596	1,54
710,002	1,54
710,407	1,59
710,813	1,58
711,219	1,58
711,625	1,58
712,03	1,63
712,436	1,6
712,841	1,6
713,246	1,64
713,652	1,62
714,057	1,63
714,462	1,64
714,868	1,63
715,273	1,62
715,678	1,62
716,083	1,63
716,488	1,64
716,893	1,65
717,297	1,67
717,702	1,65
718,107	1,71
718,512	1,68
718,916	1,68
719,321	1,68
719,725	1,7
720,13	1,73
720,534	1,74
720,939	1,71
721,343	1,74
721,747	1,73
722,151	1,76
722,556	1,76
722,96	1,75
723,364	1,75
723,768	1,78
724,172	1,77
724,576	1,77
724,979	1,77
725,383	1,8
725,787	1,82
726,19	1,79
726,594	1,85
726,998	1,81
727,401	1,78
727,805	1,8
728,208	1,8
728,611	1,82
729,014	1,84
729,418	1,83
729,821	1,85
730,224	1,82
730,627	1,85
731,03	1,84
731,433	1,85
731,836	1,87
732,239	1,87
732,641	1,94
733,044	1,89
733,447	1,88
733,849	1,88
734,252	1,9
734,654	1,9
735,057	1,93
735,459	1,92
735,862	1,92
736,264	1,94
736,666	1,89
737,068	1,88
737,47	1,94
737,872	1,97
738,274	1,93
738,676	2,01
739,078	1,95
739,48	1,92
739,882	1,92
740,284	1,99
740,685	1,99
741,087	1,94
741,488	1,94
741,89	1,92
742,291	2,01
742,693	2,03
743,094	2,05
743,495	2,09
743,897	2,01
744,298	2,01
744,699	1,99
745,1	1,98
745,501	2,07
745,902	1,95
746,303	2,06
746,704	2,07
747,105	2,01
747,505	2,01
747,906	2,03
748,307	2,02
748,707	2,08
749,108	1,99
749,508	2,04
749,908	2,21
750,309	2,03
750,709	2,08
751,109	2,12
751,51	2,05
751,91	2,11
752,31	2,08
752,71	2,05
753,11	2,08
753,51	2,08
753,909	2,1
754,309	2,16
754,709	2,1
755,109	2,17
755,508	2,12
755,908	2,06
756,307	2,09
756,707	2,1
757,106	2,11
757,505	2,13
757,905	2,13
758,304	2,17
758,703	2,23
759,102	2,05
759,501	2,21
759,9	2,19
760,299	2,22
760,698	2,11
761,097	2,15
761,496	2,15
761,895	2,17
762,293	2,26
762,692	2,11
763,09	2,21
763,489	2,16
763,887	2,17
764,286	2,13
764,684	2,19
765,082	2,09
765,481	2,14
765,879	2,16
766,277	2,12
766,675	2,27
767,073	2,14
767,471	2,26
767,869	2,15
768,267	2,2
768,664	2,2
769,062	2,27
769,46	2,12
769,857	2,15
770,255	2,25
770,653	2,16
771,05	2,21
771,447	2,09
771,845	2,34
772,242	2,24
772,639	2,31
773,036	2,11
773,433	2,27
773,831	2,13
774,228	2,31
774,624	2,24
775,021	2,14
775,418	2,23
775,815	2,15
776,212	2,18
776,608	2,4
777,005	2,28
777,401	2,41
777,798	2,26
778,194	2,4
778,591	2,19
778,987	2,28
779,383	2,07
779,78	2,13
780,176	2,17
780,572	2,16
780,968	2,23
781,364	2,24
781,76	2,26
782,156	2,2
782,551	2,18
782,947	2,32
783,343	2,15
783,739	2,25
784,134	2,18
784,53	2,24
784,925	2,16
785,321	2,26
785,716	2,24
786,111	2,21
786,507	2,33
786,902	2,33
787,297	2,19
787,692	2,43
788,087	2,18
788,482	2,46
788,877	2,3
789,272	2,17
789,667	2,2
790,061	2,27
790,456	2,21
790,851	2,34
791,245	2,27
791,64	2,26
792,034	2,26
792,429	2,26
792,823	2,29
793,217	2,22
793,612	2,37
794,006	2,27
794,4	2,31
794,794	2,3
795,188	2,22
795,582	2,55
795,976	2,23
796,37	2,3
796,763	2,26
797,157	2,13
797,551	2,22
797,944	2,29
798,338	2,48
798,731	2,2
799,125	2,3
799,518	2,42
799,912	2,33
800,305	2,23
800,698	2,2
801,091	2,33
801,484	2,29
801,877	2,35
802,27	2,21
802,663	2,09
803,056	2,19
803,449	2,43
803,842	2,23
804,235	2,18
804,627	2,34
805,02	2,26
805,412	2,24
805,805	2,29
806,197	2,18
806,59	2,3
806,982	2,29
807,374	2,28
807,766	2,28
808,159	2,43
808,551	2,31
808,943	2,25
809,335	2,1
809,727	2,36
810,118	2,56
810,51	2,32
810,902	2,27
811,294	2,25
811,685	2,31
812,077	2,28
812,468	2,24
812,86	2,21
813,251	2,33
813,643	2,24
814,034	2,11
814,425	2,17
814,816	2,25
815,207	2,14
815,598	2,2
815,989	2,22
816,38	2,32
816,771	2,04
817,162	2,17
817,553	2,32
817,944	2,29
818,334	2,1
818,725	2,37
819,115	2,16
819,506	2,19
819,896	2,34
820,287	2,15
820,677	2,24
821,067	2,48
821,457	2,32
821,848	2,16
822,238	2,07
822,628	2,41
823,018	2,2
823,408	2,35
823,797	2,2
824,187	2,21
824,577	2,12
824,967	2,34
825,356	2,23
825,746	2,09
826,135	2,24
826,525	2,34
826,914	2,32
827,304	2,25
827,693	2,2
828,082	2,15
828,471	2,22
828,86	2,07
829,249	2,27
829,638	2,46
830,027	2,31
830,416	2,39
830,805	2,13
831,194	2,17
831,582	2,26
831,971	2,21
832,36	2,12
832,748	2,15
833,137	2,25
833,525	2,21
833,914	2,16
834,302	2,28
834,69	2,13
835,078	2,19
835,466	2,07
835,854	2,22
836,243	2,22
836,63	2,06
837,018	2,2
837,406	2,05
837,794	2,21
838,182	2,24
838,569	2,09
838,957	2,06
839,345	2,19
839,732	2,26
840,12	2,47
840,507	2,23
840,894	2,2
841,282	2,23
841,669	2,02
842,056	2,07
842,443	2,17
842,83	2,18
843,217	2,34
843,604	2,2
843,991	2,29
844,378	2,15
844,764	2,23
845,151	2,11
845,538	2,49
845,924	2
846,311	2,11
846,697	2,13
847,084	2,31
847,47	2,23
847,856	2,13
848,242	2,21
848,629	2,2
849,015	2,07
849,401	2,19
849,787	2,11
850,173	2,08
850,559	2,04
850,944	2,15
851,33	2,08
851,716	2,16
852,102	2,07
852,487	2,2
852,873	2
853,258	2,25
853,644	2,08
854,029	2,35
854,414	2,23
854,799	2,34
855,185	2,42
855,57	2,07
855,955	1,86
856,34	2,13
856,725	2,1
857,11	2
857,495	2,27
857,879	2,18
858,264	2,03
858,649	2,1
859,033	2,3
859,418	2,32
859,802	1,96
860,187	2,07
860,571	2,08
860,955	2,38
861,34	2,15
861,724	1,87
862,108	2,03
862,492	2,29
862,876	2,33
863,26	2,18
863,644	2,12
864,028	2,14
864,412	2,13
864,795	2,04
865,179	2,19
865,563	2,13
865,946	2,19
866,33	2,08
866,713	2,03
867,097	1,88
867,48	1,99
867,863	2,04
868,246	2,18
868,629	2,43
869,013	1,88
869,396	1,99
869,779	1,96
870,161	2,42
870,544	2,25
870,927	1,97
871,31	2,29
871,693	2,02
872,075	1,81
872,458	1,93
872,84	2
873,223	1,98
873,605	2,31
873,987	1,92
874,37	1,99
874,752	1,83
875,134	2,03
875,516	2,46
875,898	1,96
876,28	1,91
876,662	1,95
877,044	1,95
877,426	1,96
877,807	1,78
878,189	2,28
878,571	1,95
878,952	2,06
879,334	2
879,715	2,14
880,097	2,15
880,478	2,15
880,859	2,16
881,24	1,96
881,622	2,16
882,003	1,9
882,384	2,09
882,765	3,03
883,146	2,03
883,526	2
883,907	2,03
884,288	2,05
884,669	2,06
885,049	1,94
885,43	1,85
885,81	2,08
886,191	1,96
886,571	1,99
886,952	2,11
887,332	1,94
887,712	2,16
888,092	1,92
888,472	2,08
888,852	2,25
889,232	2,31
889,612	1,88
889,992	2,03
890,372	2,11
890,752	2,03
891,131	2,09
891,511	1,96
891,89	1,84
892,27	1,91
892,649	2,05
893,029	2,18
893,408	2,01
893,787	1,93
894,167	1,87
894,546	1,95
894,925	2,03
895,304	2,02
895,683	2,05
896,062	1,86
896,441	2,19
896,819	1,96
897,198	2,06
897,577	2,19
897,955	2,21
898,334	1,94
898,712	1,92
899,091	2,09
899,469	1,76
899,848	1,93
900,226	2,17
900,604	2,03
900,982	1,86
901,36	1,91
901,738	1,86
902,116	1,85
902,494	2,01
902,872	2,23
903,25	1,98
903,628	1,91
904,005	1,91
904,383	1,82
904,76	1,75
905,138	1,83
905,515	1,94
905,893	1,89
906,27	1,94
906,647	2,07
907,024	1,78
907,402	1,92
907,779	1,93
908,156	1,88
908,533	1,8
908,91	2,28
909,286	1,86
909,663	2,26
910,04	2,03
910,417	2,04
910,793	1,76
911,17	1,87
911,546	1,77
911,923	1,91
912,299	1,81
912,675	2,3
913,051	1,86
913,428	1,74
913,804	1,92
914,18	1,78
914,556	1,63
914,932	1,81
915,308	1,9
915,683	2,18
916,059	1,77
916,435	1,8
916,811	1,64
917,186	1,84
917,562	1,83
917,937	1,99
918,313	1,83
918,688	1,8
919,063	1,79
919,438	1,79
919,814	1,65
920,189	1,98
920,564	1,81
920,939	2,27
921,314	1,86
921,689	1,82
922,063	1,66
922,438	1,85
922,813	1,62
923,187	1,68
923,562	1,93
923,936	1,93
924,311	1,73
924,685	2,21
925,06	2,65
925,434	2,01
925,808	1,8
926,182	2,05
926,556	1,48
926,93	2,42
927,304	1,78
927,678	1,8
928,052	1,56
928,426	1,79
928,8	1,63
929,173	1,63
929,547	1,66
929,92	2,88
930,294	2,93
930,667	1,54
931,041	1,5
931,414	1,93
931,787	2,33
932,161	1,8
932,534	1,74
932,907	1,87
933,28	1,61
933,653	1,91
934,026	1,72
934,398	1,47
934,771	2,94
935,144	1,67
935,517	1,86
935,889	1,68
936,262	1,85
936,634	1,78
937,007	1,52
937,379	1,53
937,751	1,51
938,123	1,71
938,496	1,73
938,868	1,89
939,24	1,62
939,612	2,02
939,984	-0
940,355	1,45
940,727	1,46
941,099	1,46
941,471	2,13
941,842	1,77
942,214	2,36
942,585	1,58
942,957	1,54
943,328	2,29
943,7	1,77
944,071	1,39
944,442	1,79
944,813	1,9
945,184	1,79
945,555	2,6
945,926	-0
946,297	1,58
946,668	1,53
947,039	1,67
947,409	1,61
947,78	1,53
948,151	1,38
948,521	1,46
948,892	1,63
949,262	1,74
949,633	1,9
950,003	2,12
950,373	1,38
950,743	1,54
951,113	1,53
951,483	2,44
951,853	1,71
952,223	1,51
952,593	1,72
952,963	1,4
953,333	1,4
953,702	1,39
954,072	2,29
954,442	1,51
954,811	1,36
955,181	1,16
955,55	1,46
955,919	1,63
956,289	1,89
956,658	1,28
957,027	1,36
957,396	1,24
957,765	1,32
958,134	1,41
958,503	1,22
958,872	1,31
959,24	1,7
959,609	1,26
959,978	-0
960,346	1,42
960,715	2,47
961,083	1,21
961,452	1,49
961,82	1,52
962,188	1,47
962,557	1,26
962,925	1,2
963,293	1,58
963,661	-0
964,029	1,39
964,397	1,19
964,765	-0
965,133	1,46
965,5	0,98
965,868	1,69
966,236	1,25
966,603	1,19
966,971	2,31
967,338	1,72
967,706	1,58
968,073	1,1
968,44	1,62
968,807	1,46
969,174	2,29
969,542	1,33
969,909	1,44
970,275	1,5
970,642	1,45
971,009	-0
971,376	1,92
971,743	2,59
972,109	2,3
972,476	1,14
972,842	1,3
973,209	1,84
973,575	1,16
973,942	1,19
974,308	1,41
974,674	1,18
975,04	1,42
975,406	0,98
975,772	2,53
976,138	1,31
976,504	1,17
976,87	1,96
977,236	0,97
977,602	0,88
977,967	1,15
978,333	1,18
978,698	1,56
979,064	1,18
979,429	0,96
979,795	0,99
980,16	1,16
980,525	1,19
980,89	1,26
981,255	-0
981,621	1,76
981,986	1,44
982,35	0,85
982,715	3,17
983,08	0,93
983,445	1,05
983,81	1,51
984,174	-0
984,539	1,15
984,903	-0
985,268	1,21
985,632	1,42
985,996	0,89
986,361	0,9
986,725	0,83
987,089	1,36
987,453	1,08
987,817	1,66
988,181	1,14
988,545	0,66
988,909	1,55
989,272	0,77
989,636	1,18
990	0,9
990,363	0,84
990,727	1,38
991,09	1,04
991,454	1,9
991,817	2,22
992,18	-0
992,543	1,16
992,907	1,06
993,27	0,84
993,633	0,95
993,996	1,28
994,359	1,1
994,721	-0
995,084	0,73
995,447	0,89
995,81	-0
996,172	-0
996,535	-0
996,897	-0
997,259	1,56
997,622	1,12
997,984	-0
998,346	1,08
998,708	0,97
999,071	-0
999,433	1,18
999,795	1,02
1000,156	0,82
1000,518	1,28
1000,88	1,06
1001,242	0,63
1001,603	-0
1001,965	-0
1002,327	-0
1002,688	0,79
1003,049	1,05
1003,411	1,25
1003,772	1,64
1004,133	1,03
1004,495	-0
1004,856	1,15
1005,217	1,18
1005,578	0,78
1005,939	1,11
1006,299	-0
1006,66	-0
1007,021	1,15
1007,382	1,12
1007,742	1,31
1008,103	0,96
1008,463	0,89
1008,824	2,11
1009,184	1,2
1009,544	0,92
1009,904	1,59
1010,265	0,84
1010,625	1,39
1010,985	1,14
1011,345	0,67
1011,705	1,08
1012,065	-0
1012,424	0,81
1012,784	1,76
1013,144	1,35
1013,503	1,34
1013,863	1,21
1014,222	-0
1014,582	0,95
1014,941	-0
1015,3	-0
1015,66	-0
1016,019	-0
1016,378	1,44
1016,737	1,04
1017,096	0,58
1017,455	0,8
1017,814	0,84
1018,173	1,8
1018,531	1,04
1018,89	-0
1019,249	1,13
1019,607	1,02
1019,966	-0
1020,324	0,89
1020,682	-0
1021,041	-0
1021,399	1,1
1021,757	1,16
1022,115	-0
1022,473	1,56
1022,831	1,06
1023,189	1,3
1023,547	1,09
1023,905	-0
1024,263	1,39
1024,62	1,84
1024,978	-0
1025,335	-0
1025,693	-0
1026,05	-0
1026,408	1,22
1026,765	1,23
1027,122	0,87
1027,479	-0
1027,837	1,08
1028,194	0,65
1028,551	0,7
1028,908	1,22
1029,264	1,56
1029,621	-0
1029,978	1,02
1030,335	0,91
1030,691	-0
1031,048	0,74
1031,404	0,86
1031,761	0,81
1032,117	1,51
1032,473	2,11
1032,83	0,66
1033,186	-0
1033,542	-0
1033,898	-0
1034,254	0,74
1034,61	0,74
1034,966	0,74
