Data from FLMS055071_15-31-18-495.txt Node
Date: Wed Apr 21 15:31:18 CEST 2021
User: au643642
Spectrometer: FLMS05507
Trigger mode: 0
Integration Time (sec): 2,100000E-2
Scans to average: 20
Electric dark correction enabled: true
Nonlinearity correction enabled: false
Boxcar width: 0
XAxis mode: Pixels
Number of Pixels in Spectrum: 2048
>>>>>Begin Spectral Data<<<<<
0	-29,94
1	-29,94
2	-29,94
3	-68,79
4	-48,9
5	-80,02
6	-59,43
7	-73,82
8	-61,65
9	-55,8
10	-27,48
11	-35,67
12	-18,35
13	-10,86
14	5,99
15	22,84
16	45,08
17	77,03
18	71,76
19	97,86
20	102,54
21	104,64
22	145,49
23	194,17
24	316,7
25	332,26
26	349,58
27	347,36
28	361,75
29	365,85
30	371,23
31	393
32	389,14
33	399,67
34	404,12
35	395,22
36	414,88
37	409,26
38	406,69
39	422,25
40	421,9
41	424,83
42	450,46
43	430,21
44	416,64
45	422,96
46	429,63
47	428,69
48	422,37
49	425,41
50	431,97
51	435,6
52	426,82
53	432,08
54	413,36
55	423,42
56	422,96
57	414,18
58	418,16
59	418,63
60	416,52
61	415,47
62	411,37
63	396,51
64	400,96
65	401,66
66	409,03
67	403,76
68	392,3
69	395,1
70	402,36
71	398,03
72	398,97
73	407,74
74	392,88
75	406,34
76	386,56
77	391,83
78	402,48
79	411,49
80	404,23
81	405,17
82	401,54
83	398,38
84	401,07
85	390,42
86	397,56
87	403,76
88	401,42
89	404,12
90	395,92
91	406,1
92	420,5
93	387,38
94	396,51
95	412,07
96	420,97
97	395,57
98	399,08
99	393,23
100	412,19
101	389,96
102	389,6
103	407,74
104	395,57
105	406,69
106	418,74
107	408,91
108	403,3
109	407,74
110	403,41
111	401,54
112	407,98
113	412,31
114	403,18
115	410,32
116	417,92
117	424,95
118	409,15
119	413,01
120	407,04
121	414,53
122	404,58
123	409,97
124	416,17
125	434,54
126	407,39
127	413,95
128	404,58
129	419,8
130	410,79
131	420,73
132	421,79
133	425,53
134	423,78
135	419,09
136	423,31
137	421,9
138	420,27
139	410,2
140	410,2
141	424,71
142	407,98
143	420,5
144	423,78
145	414,76
146	404,12
147	426,58
148	429,39
149	415,7
150	416,29
151	411,14
152	426,7
153	438,99
154	408,21
155	427,99
156	415,35
157	422,25
158	416,17
159	417,46
160	428,22
161	430,33
162	442,97
163	438,76
164	425,06
165	408,33
166	410,67
167	411,14
168	421,2
169	415,12
170	416,17
171	415,23
172	416,05
173	429,63
174	416,99
175	414,88
176	426,23
177	421,32
178	431,27
179	426,82
180	414,06
181	424,01
182	437,47
183	413,83
184	434,54
185	438,52
186	420,62
187	438,29
188	436,41
189	434,89
190	422,37
191	432,9
192	447,77
193	434,43
194	442,97
195	425,53
196	434,89
197	428,22
198	416,4
199	429,98
200	431,27
201	449,17
202	432,9
203	444,37
204	432,32
205	443,44
206	442,03
207	447,06
208	445,78
209	452,56
210	439,93
211	446,95
212	457,71
213	454,91
214	446,25
215	454,32
216	453,97
217	459,35
218	445,07
219	451,39
220	464,74
221	457,71
222	445,54
223	460,52
224	467,19
225	465,2
226	466,61
227	458,88
228	470,35
229	459,82
230	484,4
231	479,01
232	469,77
233	481,35
234	477,61
235	499,84
236	496,1
237	488,96
238	486,74
239	503,12
240	495,28
241	504,06
242	513,18
243	526,29
244	517,87
245	524,42
246	564,09
247	561,87
248	598,61
249	640,63
250	698,79
251	733,9
252	800,13
253	883,93
254	973,92
255	1053,15
256	1146,07
257	1255,02
258	1403,29
259	1617,33
260	1799,07
261	1973,21
262	2124,18
263	2281,46
264	2425,87
265	2691,87
266	3176,48
267	3678,06
268	4189,81
269	4486,01
270	4858,39
271	5178,11
272	5580,44
273	5930,35
274	6291,38
275	6607,71
276	6862,71
277	6959,72
278	6973,77
279	7361,83
280	8020,92
281	8720,62
282	9153,15
283	9680,13
284	10039,52
285	10670,17
286	11222,77
287	11900,71
288	12830,49
289	13380,75
290	14218,43
291	14202,28
292	14249,79
293	13759,33
294	13783,55
295	14504,91
296	15976,28
297	16762,35
298	17755,09
299	18950,4
300	19727,11
301	21260,75
302	21831,02
303	21729,09
304	21079,12
305	21140,33
306	21091,64
307	21776,6
308	22998,48
309	23498,42
310	23312,58
311	22443,54
312	21840,26
313	21879,7
314	21841,32
315	21945,82
316	21786,31
317	21672,8
318	21663,9
319	21798,72
320	22217,79
321	22264,02
322	21684,73
323	20878,89
324	19932,02
325	19892,94
326	20120,09
327	20585,85
328	21330,26
329	22126,39
330	22613,22
331	23456,99
332	23714,8
333	23087,42
334	22941,48
335	22819,43
336	23048,33
337	23872,9
338	23472,44
339	22843,77
340	21514,23
341	20692,11
342	20749,57
343	21409,02
344	22034,64
345	22068,23
346	22230,9
347	22306,97
348	22076,31
349	22011,36
350	22060,62
351	21918,32
352	22161,97
353	22752,37
354	23731,42
355	24296,54
356	24391,68
357	24302,74
358	23683,79
359	23391,57
360	23730,83
361	24624,45
362	25630,29
363	26634,03
364	26729,17
365	26959,01
366	26321,34
367	25171,9
368	23850,78
369	22328,5
370	21272,92
371	20314,35
372	19529,92
373	20007,27
374	21696,32
375	23906,49
376	24827,25
377	24716,9
378	23746,51
379	23362,43
380	23872,9
381	24642,7
382	25621,4
383	25701,09
384	26368,61
385	26826,66
386	26955,04
387	27573,52
388	29304,58
389	30886,67
390	31889
391	31973,85
392	31500,36
393	31080
394	30627,92
395	30415,75
396	30736,87
397	31945,17
398	32173,96
399	31522,36
400	31323,88
401	31322,71
402	30884,44
403	29559,7
404	28367,78
405	27262
406	26194,24
407	25315,96
408	25175,76
409	25476,17
410	26764,63
411	28033,91
412	28542,5
413	29489,13
414	31079,64
415	33106,43
416	34706,66
417	34220,64
418	32961,44
419	31372,91
420	30847,7
421	31140,03
422	31722
423	30629,09
424	28974,92
425	26521,57
426	24014,97
427	21893,74
428	20741,97
429	21308,14
430	22704,15
431	24631
432	25816,6
433	25911,62
434	26177,63
435	26538,19
436	26636,37
437	26394,71
438	26546,03
439	26300,27
440	26737,6
441	28040,34
442	29754,43
443	30858,46
444	31994,91
445	32922,11
446	33665,12
447	32298,36
448	29983,1
449	25531,05
450	22037,34
451	20176,49
452	21445,88
453	24720,88
454	27394,82
455	29520,85
456	28950,23
457	26149,31
458	23389,7
459	23250,2
460	26127,66
461	30334,89
462	34113,45
463	36778,26
464	38649,17
465	40313,64
466	41512,11
467	43072,78
468	42420,36
469	43944,28
470	44261,07
471	44008,53
472	43337,38
473	43151,66
474	43275,94
475	43324,74
476	42237,33
477	42207,37
478	41956,82
479	41500,76
480	40660,98
481	40403,75
482	40103,23
483	41046,7
484	41305,56
485	42625,04
486	43130,83
487	41132,13
488	40089,89
489	40365,72
490	41228,68
491	42566,41
492	43135,74
493	43458,39
494	43095,25
495	42564,42
496	42574,95
497	43228,66
498	43139,37
499	41831,01
500	43127,2
501	42433,58
502	42690,34
503	42780,1
504	41663,08
505	40962,32
506	41104,86
507	40883,1
508	41120,66
509	39943,02
510	40392,05
511	40849,27
512	41092,81
513	42259,92
514	42056,52
515	41611,7
516	39481,11
517	40029,85
518	39928,63
519	39612,77
520	40289,54
521	40322,07
522	39670
523	39618,74
524	39589,72
525	39617,92
526	38137,3
527	37866,26
528	36845,44
529	37714,71
530	37225,77
531	35559,43
532	34193,96
533	32240,9
534	29932,2
535	29923,3
536	30814,7
537	33628,96
538	35866,86
539	36270,25
540	37469,07
541	37368,55
542	36412,67
543	36116,24
544	37820,27
545	38354,97
546	38807,39
547	39586,2
548	39968,41
549	40040,5
550	39681,46
551	38706,63
552	38313,89
553	37547,83
554	37662,05
555	38578,96
556	38268,48
557	38617,69
558	39855,6
559	40205,28
560	41209,95
561	41994,03
562	42314,68
563	41450,56
564	41067,3
565	43319,24
566	42561,38
567	42627,03
568	42114,1
569	41291,64
570	41559,28
571	42162,9
572	42350,03
573	41504,16
574	43484,02
575	44218,94
576	42515,5
577	43512,45
578	44026,55
579	44241,18
580	45161,59
581	45696,06
582	45209,58
583	44333,05
584	44084,01
585	43079,34
586	43708,36
587	43198,7
588	42452,31
589	42877,35
590	42992,5
591	43504,14
592	42875,01
593	43588,52
594	43816,84
595	44182,31
596	43809
597	43331,18
598	42600,93
599	41995,32
600	43065,76
601	41779,87
602	43094,32
603	43405,37
604	43730,83
605	43897,12
606	44694,89
607	44499,46
608	45152,35
609	44199,4
610	44357,04
611	44115,14
612	44054,4
613	43969,68
614	43711,98
615	43548,73
616	43975,53
617	43339,96
618	43831,59
619	43315,73
620	43122,52
621	44176,11
622	45062,94
623	45023,62
624	44656,98
625	44176,11
626	45272,77
627	44603,26
628	45915,25
629	46698,74
630	47753,39
631	47192,36
632	47068,43
633	47917,58
634	48161,23
635	49197,5
636	50221,36
637	50365,07
638	50208,37
639	49875,2
640	51139,56
641	51165,42
642	52607,89
643	52547,97
644	52638,79
645	53277,87
646	54054,46
647	54391,15
648	54881,61
649	55178,15
650	55389,74
651	55807,29
652	56281,13
653	56275,39
654	56534,73
655	56463,57
656	56277,27
657	56151,58
658	56097,63
659	56063,69
660	54243,46
661	52601,1
662	51558,86
663	51917,9
664	52752,65
665	53786
666	54506,53
667	54874,82
668	55287,22
669	55811,38
670	56732,38
671	57038,29
672	57083,11
673	56858,54
674	56553,92
675	55959,54
676	56175,8
677	56475,04
678	56429,75
679	56755,32
680	56782,12
681	57485,69
682	57449,88
683	57395,22
684	57450,93
685	57281,24
686	57569,24
687	57629,86
688	57349,35
689	56855,96
690	56432,09
691	56485,69
692	56723,84
693	56336,95
694	55955,44
695	55349,13
696	55134,15
697	54781,2
698	54469,79
699	54870,02
700	55138,01
701	55168,2
702	55107,58
703	54964,23
704	55146,32
705	55312,03
706	56042,28
707	56232,56
708	56130,98
709	56241,22
710	55941,28
711	55661,47
712	55266,86
713	55156,03
714	55556,15
715	55608,11
716	55633,85
717	55186,34
718	55307,47
719	55542,22
720	55435,03
721	55891,31
722	55404,95
723	54995,71
724	54524,56
725	54424,73
726	53748,08
727	53627,08
728	53536,85
729	53691,09
730	53754,05
731	52622,17
732	50941,08
733	49307,74
734	49361,1
735	49290,18
736	48934,89
737	49384,27
738	49885,97
739	51016,8
740	51178,41
741	51743,18
742	52033,64
743	52332,76
744	52536,62
745	52287,94
746	51849,21
747	51314,04
748	51634,58
749	51901,17
750	52334,4
751	52304,21
752	51915,44
753	51909,71
754	50741,43
755	49467,83
756	48204,17
757	48121,67
758	48593,87
759	49249,46
760	49757,24
761	50110,07
762	50363,44
763	50310,89
764	50433,65
765	50633,42
766	50986,37
767	50521,66
768	49805,33
769	48840,21
770	48408,62
771	48299,43
772	48268,66
773	48146,83
774	48402,65
775	48762,51
776	48758,65
777	49319,56
778	48557,83
779	48162,98
780	47469,01
781	47768,83
782	47856,14
783	47600,08
784	47355,38
785	47053,45
786	46121,68
787	45657,32
788	45148,37
789	45036,96
790	45293,25
791	45421,86
792	45292,78
793	45216,48
794	45108,35
795	45751,41
796	45363,7
797	45675,23
798	45383,59
799	45400,56
800	45290,56
801	45260,01
802	44926,84
803	44694,54
804	44465,87
805	44023,74
806	44066,69
807	44133,63
808	44530,59
809	44246,09
810	44021,52
811	43777,17
812	43601,86
813	43673,01
814	43581,38
815	43583,25
816	43323,34
817	43101,69
818	42941,01
819	42982,67
820	43129,54
821	43280,04
822	43083,2
823	42914,56
824	42742,77
825	42206,2
826	41780,11
827	41351,44
828	41100,3
829	40987,95
830	40373,79
831	39710,72
832	39492,93
833	39386,91
834	39783,75
835	39682,52
836	39774,38
837	39826,11
838	39260,29
839	39408,09
840	39360,46
841	39168,89
842	38940,33
843	39099,37
844	38833,02
845	38611,14
846	38450,58
847	38019,57
848	37788,32
849	37668,14
850	37800,26
851	38065,32
852	37910,73
853	37607,4
854	37460,76
855	37446,95
856	37435,14
857	37598,5
858	36897,4
859	36857,02
860	36631,4
861	36894,71
862	37232,09
863	37562,11
864	37502,43
865	37373,46
866	37385,52
867	36978,85
868	36756,61
869	36161,77
870	35768,09
871	35109,81
872	35124,56
873	34921,75
874	34612,8
875	34335,1
876	33946,8
877	33367,17
878	33019,01
879	32864,89
880	33006,14
881	33104,21
882	32938,97
883	32760,73
884	32835,4
885	32832,35
886	32759,8
887	32990,69
888	32789,99
889	32702,81
890	32584,26
891	32442,42
892	32228,61
893	31720,25
894	31378,88
895	30942,72
896	31113
897	31046,64
898	30956,42
899	30734,88
900	30497,79
901	29442,32
902	28476,62
903	27900,96
904	27719,22
905	28300,38
906	28744,61
907	29127,52
908	29247,01
909	29446,07
910	29277,67
911	29509,5
912	29622,31
913	29704,35
914	29658,47
915	29667,95
916	29710,9
917	29790,95
918	29984,62
919	30012,24
920	30311,13
921	30310,43
922	30426,17
923	30298,61
924	30374,09
925	30185,56
926	30255,54
927	30321,31
928	30049,69
929	29944,48
930	29993,28
931	29661,05
932	29346,13
933	29260,93
934	28971,52
935	28989,08
936	29149,05
937	28957,48
938	28954,44
939	28881,65
940	28419,16
941	28206,52
942	28032,62
943	27643,04
944	27507,4
945	27314,31
946	26876,04
947	26788,27
948	26244,8
949	25961,95
950	26064,23
951	25461,42
952	25141,59
953	25164,76
954	24805,25
955	24752,71
956	24458,04
957	24256,16
958	24105,55
959	23854,64
960	23636,74
961	23253,71
962	23235,11
963	23203,39
964	23003,98
965	22698,89
966	22394,38
967	22020,6
968	21840,85
969	21838,39
970	21877,95
971	21894,1
972	21972,97
973	21733,18
974	21769,23
975	21710,71
976	21737,51
977	21567,12
978	21373,79
979	21320,31
980	21077,83
981	20905,57
982	20748,4
983	20573,8
984	20336,82
985	20155,08
986	20030,68
987	19811,14
988	19603,65
989	19362,81
990	19396,63
991	19507,45
992	19231,97
993	19158,01
994	18766,79
995	18519,51
996	18337,65
997	18441,8
998	18365,04
999	18198,16
1000	17970,19
1001	18014,66
1002	18028,93
1003	17858,78
1004	17846,84
1005	17830,93
1006	17885,11
1007	17883,47
1008	17873,76
1009	17824,96
1010	17680,08
1011	17843,8
1012	17792,19
1013	17727,36
1014	17572,18
1015	17489,68
1016	17604,83
1017	17483,47
1018	17520,22
1019	17605,06
1020	17495,41
1021	17380,26
1022	17355,91
1023	17196,76
1024	16987,28
1025	16978,39
1026	16857,85
1027	16676,69
1028	16730,87
1029	16650,12
1030	16602,03
1031	16720,93
1032	16482,89
1033	16521,28
1034	16502,09
1035	16388,1
1036	16205,66
1037	16253,64
1038	16083,95
1039	15987,17
1040	15865,58
1041	15768,8
1042	15535,44
1043	15654,58
1044	15506,31
1045	15340,95
1046	15152,3
1047	15070,61
1048	15022,4
1049	15221,58
1050	15188,23
1051	15164,12
1052	15071,78
1053	14987,17
1054	14934,75
1055	14961,78
1056	14906,31
1057	14967,63
1058	14833,4
1059	14557,45
1060	14486,53
1061	13938,15
1062	13256,47
1063	12840,43
1064	12556,88
1065	12830,37
1066	13157,11
1067	13443,47
1068	13603,1
1069	13828,14
1070	13775,36
1071	13810
1072	13820,65
1073	13885,02
1074	13880,92
1075	13958,86
1076	13798,77
1077	13776,77
1078	13742,24
1079	13715,33
1080	13712,05
1081	13518,02
1082	13455,76
1083	13487,94
1084	13346,69
1085	13365,53
1086	13299,18
1087	13198,77
1088	13197,48
1089	13025,45
1090	12991,87
1091	12892,04
1092	12838,91
1093	12742,95
1094	12685,14
1095	12645,7
1096	12523,64
1097	12505,27
1098	12412,35
1099	12316,04
1100	12170,11
1101	12165,42
1102	12013,29
1103	11927,74
1104	11981,34
1105	11881,52
1106	11858,46
1107	11685,61
1108	11617,97
1109	11590,47
1110	11459,4
1111	11513,59
1112	11433,66
1113	11300,01
1114	11290,88
1115	11279,77
1116	11163,56
1117	11066,54
1118	10952,21
1119	10977,37
1120	10870,52
1121	10856,95
1122	10687,73
1123	10589,89
1124	10599,14
1125	10496,39
1126	10481,41
1127	10400,78
1128	10336,18
1129	10226,52
1130	10151,74
1131	10033,78
1132	9998,32
1133	9942,97
1134	9794,58
1135	9630,74
1136	9095,34
1137	8319,22
1138	7788,74
1139	7401,97
1140	7407,12
1141	7444,8
1142	7457,67
1143	7385,93
1144	7530,46
1145	7566,39
1146	7716,3
1147	7855,56
1148	7942,86
1149	8049,59
1150	8145,32
1151	8175,16
1152	8267,38
1153	8228,99
1154	8238,36
1155	8270,42
1156	8187,33
1157	8159,36
1158	8155,62
1159	8132,92
1160	8207,46
1161	8225,72
1162	8321,45
1163	8209,69
1164	8271,12
1165	8231,69
1166	8169,78
1167	8194,71
1168	7980,78
1169	7959,36
1170	7828,41
1171	7884,23
1172	7883,3
1173	7688,68
1174	7659,66
1175	7620,57
1176	7656,97
1177	7603,6
1178	7665,16
1179	7726,36
1180	7706,47
1181	7748,37
1182	7649,83
1183	7697,11
1184	7648,42
1185	7638,36
1186	7574,81
1187	7695
1188	7559,25
1189	7596
1190	7596,58
1191	7546,26
1192	7453,34
1193	7414,37
1194	7519,58
1195	7516,3
1196	7361,71
1197	7362,65
1198	7362,65
1199	7350,24
1200	7310,22
1201	7346,26
1202	7173,06
1203	7227,83
1204	7117,71
1205	7127,07
1206	7053,11
1207	7014,02
1208	6948,37
1209	6854,63
1210	6686,35
1211	6396
1212	6226,55
1213	5981,73
1214	5805,49
1215	5658,74
1216	5518,42
1217	5438,61
1218	5324,39
1219	5398,7
1220	5466,11
1221	5550,49
1222	5814,5
1223	5932,69
1224	6000,57
1225	5980,91
1226	5952,94
1227	5811,1
1228	5723,1
1229	5630,06
1230	5598,12
1231	5528,02
1232	5456,63
1233	5501,8
1234	5528,37
1235	5558,79
1236	5505,31
1237	5496,89
1238	5420,7
1239	5522,52
1240	5477,58
1241	5497,71
1242	5454,17
1243	5442,59
1244	5467,75
1245	5530,71
1246	5524,51
1247	5547,91
1248	5653,12
1249	5655,22
1250	5718,89
1251	5786,29
1252	5821,52
1253	5885,3
1254	5902,03
1255	5882,26
1256	5875,94
1257	5856,74
1258	5796,01
1259	5766,17
1260	5800,92
1261	5778,1
1262	5787,7
1263	5719
1264	5750,6
1265	5693,38
1266	5667,04
1267	5730
1268	5704,02
1269	5607,95
1270	5615,32
1271	5604,9
1272	5573,54
1273	5572,72
1274	5533,28
1275	5577,87
1276	5638,37
1277	5560,67
1278	5544,4
1279	5479,92
1280	5489,98
1281	5529,19
1282	5503,09
1283	5480,85
1284	5387,35
1285	5362,31
1286	5415,09
1287	5393,9
1288	5314,56
1289	5304,03
1290	5266,23
1291	5198,12
1292	5241,07
1293	5173,31
1294	5178,34
1295	5159,38
1296	5150,25
1297	5136,56
1298	5180,33
1299	5150,72
1300	5103,21
1301	5095,25
1302	5131,3
1303	5190,98
1304	5148,62
1305	5161,02
1306	5113,98
1307	5157,16
1308	5060,61
1309	5045,16
1310	5039,55
1311	5000,58
1312	4934,57
1313	4904,38
1314	4835,45
1315	4668,57
1316	4186,54
1317	3520,77
1318	2796,96
1319	2157,53
1320	1763,62
1321	1654,9
1322	1686,14
1323	1754,02
1324	1782,22
1325	1722,07
1326	1719,96
1327	1756,01
1328	1823,88
1329	1902,18
1330	2023,53
1331	2207,26
1332	2418,03
1333	2574,38
1334	2788,3
1335	2950,5
1336	3144,06
1337	3279,81
1338	3389,7
1339	3506,96
1340	3563,49
1341	3607,84
1342	3616,62
1343	3668,58
1344	3694,44
1345	3652,78
1346	3654,18
1347	3633,24
1348	3615,68
1349	3634,99
1350	3623,05
1351	3582,68
1352	3561,5
1353	3529,2
1354	3512,11
1355	3499,59
1356	3477,12
1357	3456,17
1358	3443,54
1359	3470,69
1360	3401,05
1361	3426,57
1362	3365,13
1363	3374,72
1364	3313,52
1365	3309,89
1366	3301,7
1367	3286,6
1368	3224,58
1369	3208,66
1370	3212,88
1371	3207,14
1372	3188,53
1373	3172,27
1374	3133,65
1375	3131,54
1376	3099,36
1377	3071,74
1378	3063,08
1379	3053,13
1380	3053,02
1381	3006,21
1382	2998,48
1383	2987,48
1384	3018,03
1385	2996,61
1386	2941,49
1387	2950,38
1388	2871,51
1389	2887,89
1390	2858,99
1391	2831,37
1392	2820,25
1393	2763,26
1394	2771,57
1395	2734,24
1396	2702,76
1397	2676,66
1398	2691,4
1399	2677,83
1400	2657,23
1401	2648,57
1402	2631,14
1403	2593,22
1404	2579,76
1405	2601,64
1406	2598,72
1407	2538,92
1408	2539,27
1409	2519,96
1410	2506,5
1411	2506,38
1412	2499,48
1413	2494,8
1414	2479,94
1415	2490,23
1416	2427,39
1417	2465,07
1418	2446,12
1419	2436,99
1420	2412,3
1421	2337,51
1422	2344,89
1423	2365,25
1424	2365,13
1425	2319,02
1426	2353,55
1427	2294,57
1428	2335,41
1429	2282,51
1430	2311,54
1431	2294,22
1432	2304,28
1433	2260,04
1434	2247,4
1435	2274,67
1436	2217,09
1437	2245,77
1438	2229,27
1439	2206,44
1440	2187,72
1441	2190,88
1442	2168,53
1443	2143,13
1444	2160,34
1445	2105,92
1446	2089,07
1447	2111,19
1448	2057,24
1449	2062,27
1450	2086,02
1451	2034,18
1452	1985,26
1453	1955,66
1454	1905,34
1455	1869,52
1456	1835,82
1457	1811,36
1458	1756,83
1459	1730,97
1460	1733,31
1461	1684,97
1462	1682,05
1463	1640,85
1464	1644,83
1465	1651,5
1466	1638,16
1467	1648,93
1468	1630,79
1469	1627,98
1470	1671,52
1471	1662,27
1472	1709,78
1473	1754,96
1474	1729,33
1475	1699,84
1476	1637,93
1477	1570,76
1478	1509,08
1479	1523,24
1480	1568,65
1481	1598,49
1482	1628,8
1483	1664,73
1484	1674,56
1485	1645,07
1486	1684,27
1487	1670,93
1488	1649,63
1489	1639,33
1490	1619,2
1491	1576,37
1492	1574,27
1493	1571,46
1494	1564,9
1495	1583,39
1496	1574,5
1497	1594,63
1498	1543,72
1499	1571,69
1500	1565,02
1501	1549,11
1502	1540,21
1503	1553,79
1504	1545,13
1505	1529,56
1506	1528,74
1507	1556,01
1508	1531,67
1509	1583,63
1510	1569,35
1511	1565,26
1512	1551,45
1513	1547,7
1514	1544,89
1515	1538,81
1516	1527,57
1517	1547,47
1518	1547,7
1519	1511,19
1520	1512,94
1521	1530,62
1522	1522,07
1523	1503,93
1524	1505,45
1525	1511,19
1526	1513,53
1527	1495,16
1528	1500,19
1529	1486,73
1530	1498,32
1531	1460,75
1532	1466,02
1533	1451,86
1534	1442,73
1535	1446
1536	1447,53
1537	1434,19
1538	1425,99
1539	1422,72
1540	1427,16
1541	1426,46
1542	1404,81
1543	1394,16
1544	1401,77
1545	1366,89
1546	1343,26
1547	1330,38
1548	1307,33
1549	1307,56
1550	1303,12
1551	1312,83
1552	1302,3
1553	1313,76
1554	1286,61
1555	1289,19
1556	1273,62
1557	1234,65
1558	1191,12
1559	1157,88
1560	1140,1
1561	1170,41
1562	1211,37
1563	1213,24
1564	1214,29
1565	1222,13
1566	1205,4
1567	1206,45
1568	1213,12
1569	1226,11
1570	1209,84
1571	1215,93
1572	1212,65
1573	1186,91
1574	1170,52
1575	1163,27
1576	1153,79
1577	1166,9
1578	1156,01
1579	1124,77
1580	1153,55
1581	1147,35
1582	1139,98
1583	1140,56
1584	1118,56
1585	1122,07
1586	1125,12
1587	1102,3
1588	1069,65
1589	1043,9
1590	1009,96
1591	993,11
1592	989,6
1593	1028,57
1594	1018,15
1595	1023,19
1596	1012,89
1597	1020,85
1598	1029,39
1599	1018,86
1600	1014,29
1601	999,31
1602	1009,38
1603	984,57
1604	990,42
1605	1002,24
1606	987,38
1607	981,88
1608	985,04
1609	966,2
1610	945,95
1611	942,2
1612	941,39
1613	915,99
1614	914,12
1615	923,6
1616	930,74
1617	919,38
1618	898,2
1619	906,28
1620	901,6
1621	891,77
1622	913,18
1623	880,3
1624	896,68
1625	903,82
1626	886,73
1627	877,72
1628	882,99
1629	879,36
1630	885,21
1631	885,68
1632	888,49
1633	895,86
1634	901,95
1635	886,97
1636	904,76
1637	898,2
1638	911,31
1639	915,87
1640	930,38
1641	907,21
1642	913,88
1643	943,02
1644	905,34
1645	919,03
1646	931,44
1647	929,8
1648	931,56
1649	931,2
1650	958,82
1651	943,96
1652	963,27
1653	957,07
1654	964,21
1655	962,22
1656	962,45
1657	953,09
1658	970,29
1659	959,06
1660	934,01
1661	936,47
1662	897,62
1663	898,55
1664	908,85
1665	899,84
1666	871,75
1667	857,95
1668	825,29
1669	816,4
1670	808,21
1671	798,03
1672	782,81
1673	748,88
1674	765,26
1675	756,72
1676	731,67
1677	695,63
1678	709,79
1679	693,05
1680	675,03
1681	683,46
1682	676,67
1683	669,18
1684	653,03
1685	667,78
1686	666,96
1687	665,44
1688	683,22
1689	687,67
1690	703,59
1691	690,71
1692	685,8
1693	681,59
1694	685,33
1695	669,18
1696	677,72
1697	648,58
1698	640,86
1699	624,94
1700	613,71
1701	614,06
1702	625,3
1703	598,73
1704	585,51
1705	600,95
1706	586,68
1707	590,42
1708	587,26
1709	591,59
1710	587,38
1711	603,88
1712	606,34
1713	581,76
1714	593,93
1715	564,44
1716	561,63
1717	573,1
1718	565,96
1719	568,66
1720	552,51
1721	548,41
1722	547,59
1723	557,54
1724	539,75
1725	543,61
1726	536,59
1727	543,38
1728	551,69
1729	558,59
1730	542,09
1731	541,74
1732	565,61
1733	531,44
1734	534,72
1735	559,06
1736	547,71
1737	554,38
1738	545,72
1739	546,19
1740	546,77
1741	539,87
1742	548,29
1743	530,04
1744	539,87
1745	525,47
1746	534,95
1747	519,74
1748	521,03
1749	520,79
1750	508,15
1751	508,97
1752	513,3
1753	522,43
1754	505,23
1755	515,41
1756	515,29
1757	487,2
1758	487,79
1759	492,59
1760	471,52
1761	470,7
1762	456,89
1763	442,5
1764	433,14
1765	440,74
1766	426,58
1767	415,7
1768	428,69
1769	405,99
1770	397,8
1771	398,15
1772	391,36
1773	396,98
1774	404,82
1775	380,71
1776	381,41
1777	378,84
1778	378,95
1779	370,41
1780	371,82
1781	391,94
1782	368,54
1783	378,37
1784	380,36
1785	391,24
1786	392,53
1787	395,69
1788	391,24
1789	387,38
1790	382,47
1791	389,37
1792	376,85
1793	379,89
1794	393,23
1795	386,44
1796	368,66
1797	386,68
1798	360,7
1799	373,92
1800	384,34
1801	373,69
1802	371,82
1803	370,29
1804	376,73
1805	369,71
1806	371
1807	385,16
1808	377,32
1809	368,89
1810	361,52
1811	358,24
1812	370,53
1813	376,5
1814	370,88
1815	365,5
1816	374,74
1817	375,09
1818	381,41
1819	378,37
1820	380,01
1821	380,83
1822	372,52
1823	380,12
1824	375,79
1825	382,35
1826	383,05
1827	387,5
1828	378,6
1829	367,6
1830	380,36
1831	378,14
1832	386,09
1833	398,38
1834	382,35
1835	374,86
1836	382,58
1837	376,61
1838	379,19
1839	382,35
1840	370,41
1841	389,96
1842	369,94
1843	360,23
1844	373,92
1845	366,55
1846	375,21
1847	383,05
1848	375,91
1849	387,5
1850	376,26
1851	381,88
1852	390,19
1853	380,94
1854	373,69
1855	384,92
1856	381,18
1857	375,09
1858	372,17
1859	382,23
1860	386,91
1861	376,5
1862	385,98
1863	379,54
1864	382,58
1865	383,87
1866	385,51
1867	383,87
1868	405,75
1869	399,9
1870	385,16
1871	393,7
1872	393,58
1873	383,17
1874	388,78
1875	395,46
1876	402,48
1877	389,02
1878	390,07
1879	375,09
1880	401,89
1881	388,78
1882	389,72
1883	393,23
1884	382,58
1885	382
1886	392,18
1887	374,39
1888	374,27
1889	380,36
1890	393,93
1891	381,3
1892	379,19
1893	374,74
1894	363,86
1895	392,06
1896	369,71
1897	379,77
1898	368,42
1899	370,41
1900	377,9
1901	390,54
1902	384,45
1903	368,89
1904	380,83
1905	378,84
1906	377,55
1907	383,99
1908	377,32
1909	356,6
1910	371,82
1911	379,89
1912	379,66
1913	370,41
1914	372,75
1915	364,09
1916	360,23
1917	380,71
1918	367,49
1919	385,39
1920	372,52
1921	388,67
1922	362,92
1923	367,02
1924	377,2
1925	370,76
1926	363,27
1927	365,26
1928	377,43
1929	355,32
1930	364,44
1931	352,04
1932	370,18
1933	360,11
1934	358,83
1935	366,43
1936	363,51
1937	369,59
1938	360
1939	361,52
1940	354,61
1941	368,89
1942	365,73
1943	353,44
1944	359,41
1945	356,25
1946	374,16
1947	371
1948	358,01
1949	356,84
1950	361,17
1951	362,45
1952	358,83
1953	358,12
1954	347,59
1955	357,66
1956	347,24
1957	353,33
1958	358,12
1959	343,26
1960	346,89
1961	356,02
1962	356,13
1963	351,22
1964	378,14
1965	344,43
1966	347,12
1967	360
1968	345,25
1969	342,68
1970	336,36
1971	324,07
1972	351,22
1973	354,73
1974	347,59
1975	342,56
1976	344,08
1977	348,41
1978	355,78
1979	345,25
1980	350,28
1981	342,79
1982	347,12
1983	338,58
1984	344,43
1985	350,63
1986	346,19
1987	343,73
1988	345,02
1989	355,55
1990	345,25
1991	348,88
1992	349,58
1993	341,97
1994	343,85
1995	342,68
1996	351,57
1997	343,96
1998	338,93
1999	345,02
2000	328,87
2001	336,94
2002	340,45
2003	356,72
2004	348,41
2005	336,01
2006	344,67
2007	340,69
2008	344,55
2009	337,41
2010	356,13
2011	331,56
2012	352,51
2013	339,63
2014	338
2015	328,98
2016	337,06
2017	349,23
2018	343,73
2019	332,14
2020	334,84
2021	326,41
2022	334,48
2023	334,02
2024	350,63
2025	338,11
2026	342,79
2027	335,07
2028	345,95
2029	336,47
2030	364,91
2031	328,28
2032	332,73
2033	327,93
2034	337,06
2035	333,08
2036	329,1
2037	335,19
2038	334,6
2039	329,45
2040	331,09
2041	346,77
2042	345,72
2043	326,64
2044	338,35
2045	331,91
2046	331,91
2047	331,91
