Data from FLMS055071_15-22-19-607.txt Node
Date: Wed Apr 21 15:22:19 CEST 2021
User: au643642
Spectrometer: FLMS05507
Trigger mode: 0
Integration Time (sec): 1,500000E-2
Scans to average: 20
Electric dark correction enabled: true
Nonlinearity correction enabled: false
Boxcar width: 0
XAxis mode: Pixels
Number of Pixels in Spectrum: 2048
>>>>>Begin Spectral Data<<<<<
0	-4,62
1	-4,62
2	-4,62
3	-54,59
4	-66,76
5	-72,02
6	-70,62
7	-75,53
8	-70,85
9	-52,71
10	-51,07
11	-15,38
12	-5,08
13	1,12
14	15,4
15	23,94
16	41,14
17	68,99
18	66,07
19	89,71
20	106,91
21	122,24
22	130,9
23	157,12
24	218,2
25	227,1
26	218,79
27	255,3
28	246,99
29	266,42
30	281,28
31	286,08
32	296,14
33	289,47
34	311,36
35	309,37
36	310,89
37	314,75
38	331,37
39	336,28
40	316,39
41	327,04
42	339,79
43	329,03
44	319,43
45	331,72
46	317,79
47	356,18
48	330,32
49	320,49
50	342,37
51	324,46
52	329,96
53	334,18
54	321,77
55	325,52
56	330,43
57	342,02
58	316,97
59	314,4
60	316,39
61	302,7
62	317,33
63	331,72
64	316,16
65	310,77
66	309,25
67	319,31
68	302,35
69	308,2
70	293,45
71	307,61
72	292,98
73	318,96
74	297,78
75	300,94
76	297,31
77	314,52
78	309,13
79	303,4
80	309,95
81	297,31
82	306,91
83	293,69
84	305,74
85	297,55
86	302,23
87	304,22
88	320,13
89	308,31
90	315,92
91	315,8
92	306,44
93	307,14
94	314,05
95	319,43
96	308,2
97	323,64
98	306,44
99	322,12
100	311,01
101	304,69
102	326,34
103	297,78
104	308,2
105	311,83
106	326,22
107	299,3
108	326,8
109	299,65
110	325,63
111	323,18
112	316,16
113	325,87
114	333,94
115	323,06
116	303,17
117	313,46
118	320,95
119	323,41
120	314,87
121	325,63
122	308,2
123	305,27
124	317,33
125	320,25
126	318,73
127	319,9
128	316,04
129	323,41
130	315,45
131	312,29
132	321,19
133	316,27
134	321,66
135	321,07
136	335,11
137	313
138	328,33
139	326,8
140	318,26
141	322,36
142	332,07
143	320,84
144	322,01
145	318,73
146	318,14
147	334,06
148	322,83
149	327,16
150	307,96
151	321,77
152	331,84
153	317,33
154	323,29
155	318,14
156	331,37
157	313,93
158	318,38
159	328,33
160	313,81
161	340,38
162	323,29
163	328,91
164	328,68
165	330,9
166	335,46
167	333,71
168	338,98
169	322,12
170	330,32
171	322,36
172	324
173	329,15
174	324,58
175	315,92
176	317,44
177	324
178	312,64
179	331,84
180	313,35
181	321,07
182	315,57
183	323,41
184	320,72
185	328,21
186	321,77
187	327,97
188	324,58
189	320,95
190	322,83
191	329,26
192	330,78
193	320,6
194	328,09
195	322,24
196	314,87
197	330,55
198	324,82
199	338,27
200	327,39
201	326,57
202	328,68
203	334,18
204	330,78
205	330,2
206	321,42
207	336,75
208	317,09
209	318,73
210	311,83
211	324,7
212	316,39
213	325,75
214	329,03
215	316,27
216	324,58
217	324
218	341,08
219	321,42
220	336,28
221	333,48
222	344,36
223	325,17
224	326,22
225	322,47
226	342,14
227	331,49
228	326,57
229	323,29
230	322,71
231	336,4
232	340,15
233	334,29
234	317,33
235	329,38
236	333,83
237	332,66
238	329,5
239	330,55
240	324,35
241	330,08
242	338,74
243	327,51
244	328,79
245	339,68
246	326,69
247	322,12
248	335
249	329,85
250	336,63
251	336,17
252	339,68
253	329,73
254	342,14
255	331,25
256	341,78
257	337,45
258	340,03
259	334,53
260	333,83
261	334,65
262	340,38
263	335,23
264	346,11
265	339,21
266	343,66
267	339,79
268	344,36
269	339,68
270	330,2
271	332,66
272	340,96
273	324,35
274	331,6
275	337,57
276	331,72
277	334,41
278	342,49
279	334,41
280	336,17
281	335,82
282	338,51
283	338,16
284	335,11
285	346,11
286	338,86
287	347,75
288	332,54
289	339,09
290	349,86
291	336,99
292	345,41
293	336,28
294	349,04
295	333,24
296	346,47
297	349,51
298	341,55
299	339,56
300	353,37
301	338,98
302	343,66
303	337,81
304	347,87
305	349,27
306	346,58
307	350,21
308	332,3
309	320,6
310	334,41
311	333,71
312	353,14
313	335,11
314	356,65
315	346,82
316	351,15
317	332,77
318	354,66
319	327,62
320	342,72
321	345,29
322	340,15
323	351,26
324	352,78
325	339,21
326	347,52
327	345,65
328	350,21
329	364,84
330	347,4
331	347,52
332	342,49
333	344,94
334	340,96
335	340,96
336	339,33
337	348,69
338	337,57
339	348,92
340	345,06
341	346,47
342	355,36
343	351,97
344	348,57
345	364,25
346	331,6
347	325,05
348	355,71
349	344,36
350	358,75
351	351,73
352	341,32
353	338,98
354	344,83
355	360,04
356	351,26
357	344,83
358	342,37
359	352,2
360	342,49
361	343,07
362	342,95
363	339,56
364	360,04
365	350,21
366	347,75
367	343,31
368	355,94
369	348,1
370	348,34
371	352,08
372	337,69
373	365,54
374	331,13
375	341,08
376	348,1
377	352,9
378	346
379	346,35
380	324,46
381	354,31
382	341,2
383	351,03
384	354,42
385	357,7
386	350,44
387	339,79
388	361,09
389	352,78
390	355,59
391	353,49
392	357,47
393	335,93
394	364,72
395	354,89
396	345,76
397	343,19
398	340,61
399	358,75
400	360,39
401	357,7
402	370,57
403	353,25
404	354,77
405	349,98
406	365,42
407	358,87
408	362,38
409	356,06
410	354,19
411	364,37
412	376,19
413	357,7
414	363,43
415	331,84
416	362,03
417	366,71
418	359,22
419	349,62
420	346,58
421	363,55
422	368,23
423	360,39
424	355,13
425	353,02
426	362,15
427	380,99
428	361,8
429	379,47
430	363,43
431	376,07
432	357,82
433	360,74
434	370,92
435	369,05
436	376,31
437	366,36
438	380,87
439	360,39
440	373,26
441	382,86
442	377,01
443	373,85
444	385,79
445	384,5
446	386,61
447	390,35
448	387,89
449	392,81
450	399,36
451	415,86
452	421,71
453	449,57
454	461,62
455	484,79
456	526,1
457	522,12
458	567,41
459	600,18
460	689,35
461	831,07
462	977,47
463	1160,04
464	1301,29
465	1527,03
466	1709,83
467	1997,13
468	2191,28
469	2518,48
470	2818,3
471	3073,66
472	3328,31
473	3648,73
474	3991,62
475	4327,95
476	4606,47
477	4938,36
478	5298,45
479	5615,01
480	5844,97
481	6137,18
482	6508,63
483	6981,88
484	7426,94
485	7986,09
486	8416,05
487	8326,17
488	8442,03
489	8838,75
490	9319,26
491	9999,65
492	10403,04
493	10750,03
494	10913,87
495	11027,15
496	11286,48
497	11603,39
498	11835,1
499	11675,71
500	12275,94
501	12165,59
502	12500,16
503	12706,6
504	12486,94
505	12411,69
506	12536,68
507	12619,77
508	12828,07
509	12554,58
510	12868,21
511	13121,93
512	13212,04
513	13748,02
514	13763,35
515	13655,8
516	13046,33
517	13277,69
518	13335,39
519	13254,64
520	13565,93
521	13688,81
522	13508
523	13494,78
524	13514,79
525	13633,57
526	13160,31
527	13091,97
528	12756,8
529	13061,89
530	12955,05
531	12346,63
532	11933,29
533	11311,87
534	10508,72
535	10539,15
536	10961,03
537	11906,25
538	12631,12
539	12835,68
540	13368,62
541	13343,81
542	12987,7
543	12903,79
544	13571,66
545	13784,3
546	13945,91
547	14304,48
548	14462,35
549	14534,79
550	14327,3
551	13946,38
552	13851,01
553	13624,56
554	13694,42
555	14012,85
556	13998,81
557	14099,22
558	14558,78
559	14716,77
560	15162,64
561	15445,26
562	15530,11
563	15322,03
564	15232,51
565	16092,07
566	15829,58
567	15860,94
568	15669,25
569	15405,12
570	15513,49
571	15779,14
572	15947,77
573	15612,38
574	16413,54
575	16681,3
576	16034,84
577	16458,48
578	16689,37
579	16841,16
580	17295,22
581	17501,66
582	17231,79
583	16938,29
584	16929,51
585	16527,64
586	16851,81
587	16681,88
588	16372,82
589	16555,26
590	16583,93
591	16865,73
592	16652,98
593	16998,91
594	17101,89
595	17195,05
596	17179,36
597	16937
598	16718,16
599	16406,4
600	16950,93
601	16441,04
602	17037,41
603	17148
604	17292,06
605	17387,09
606	17757,71
607	17650,75
608	18002,06
609	17673,57
610	17649,81
611	17650,4
612	17617,98
613	17576,2
614	17507,51
615	17434,6
616	17699,31
617	17428,51
618	17607,8
619	17445,95
620	17360,99
621	17840,1
622	18188,84
623	18189,19
624	18007,8
625	17910,43
626	18362,86
627	18134,65
628	18694,74
629	19090,41
630	19534,65
631	19326,1
632	19291,11
633	19647,93
634	19718,14
635	20274,02
636	20723,87
637	20842,3
638	20736,86
639	20615,74
640	21326,21
641	21329,37
642	22112,98
643	22103,15
644	22144,93
645	22511,57
646	23076,81
647	23242,76
648	23493,78
649	23781,43
650	23921,16
651	24286,17
652	24642,4
653	24545,97
654	24764,57
655	24745,5
656	24628,7
657	24592,31
658	24541,4
659	24506,29
660	23349,95
661	22442,88
662	21790,69
663	22120,23
664	22588,46
665	23124,79
666	23596,88
667	23816,77
668	24219,11
669	24542,69
670	25176,51
671	25433,73
672	25521,03
673	25414,77
674	25131,57
675	24671,65
676	24897,63
677	25027,18
678	25062,05
679	25354,97
680	25339,52
681	25857,02
682	25883,93
683	25850,7
684	25921,73
685	25698,33
686	26028,58
687	26100,2
688	25836,89
689	25498,45
690	25217,23
691	25215,01
692	25433,73
693	25173,7
694	24818,29
695	24461,59
696	24323,97
697	24135,79
698	23973,94
699	24189,39
700	24440,76
701	24423,44
702	24319,4
703	24271,66
704	24398,63
705	24630,81
706	25100,67
707	25254,1
708	25166,56
709	25238,3
710	25091,66
711	24828,35
712	24594,18
713	24511,21
714	24739,53
715	24834,2
716	24840,52
717	24560,48
718	24681,48
719	24844,74
720	24756,38
721	25117,41
722	24736,6
723	24498,92
724	24176,86
725	24041,58
726	23735,09
727	23597,58
728	23628,83
729	23689,45
730	23752,64
731	23068,5
732	22149,14
733	21321,76
734	21280,8
735	21341,42
736	21184,49
737	21410,35
738	21582,96
739	22247,68
740	22280,33
741	22635,27
742	22695,89
743	22929,12
744	22961,77
745	22966,22
746	22664,64
747	22307,95
748	22607,77
749	22734,27
750	22964,7
751	22984,71
752	22733,46
753	22685,59
754	22122,22
755	21401,57
756	20811,29
757	20802,16
758	21023,69
759	21339,9
760	21672,37
761	21759,09
762	21934,98
763	21923,75
764	21918,83
765	22087,58
766	22229,19
767	22064,41
768	21645,69
769	21182,62
770	20860,09
771	20885,84
772	20882,44
773	20833,88
774	20972,9
775	21124,1
776	21200,05
777	21312,52
778	20990,58
779	20807,55
780	20553,01
781	20578,29
782	20649,33
783	20595,26
784	20394,56
785	20308,31
786	19771,74
787	19621,83
788	19499,65
789	19368,35
790	19499,89
791	19632,25
792	19402,64
793	19503,52
794	19446,41
795	19770,69
796	19628,15
797	19686,78
798	19576,31
799	19608,72
800	19547,99
801	19484,21
802	19395,5
803	19312,29
804	19186,49
805	18962,38
806	18967,88
807	18889,71
808	19105,16
809	18924,47
810	18853,2
811	18794,8
812	18656,12
813	18737,93
814	18717,56
815	18626,28
816	18569,06
817	18446,06
818	18421,49
819	18390,47
820	18475,55
821	18516,63
822	18380,41
823	18302,35
824	18163,21
825	17982,52
826	17755,02
827	17585,21
828	17548,23
829	17381,94
830	17168,25
831	16949,29
832	16812,72
833	16750,69
834	16850,75
835	16827,11
836	16919,45
837	16917,93
838	16689,72
839	16679,54
840	16706,69
841	16540,98
842	16562,05
843	16609,91
844	16427,47
845	16299,44
846	16226,41
847	16101,9
848	15966,03
849	15949,18
850	15910,09
851	16069,36
852	16045,14
853	15855,67
854	15771,18
855	15814,48
856	15768,14
857	15855,56
858	15509,27
859	15483,29
860	15395,52
861	15494,76
862	15650,29
863	15720,74
864	15713,14
865	15636,72
866	15638,94
867	15447,48
868	15313,49
869	15071,83
870	14876,98
871	14627,71
872	14635,67
873	14523,56
874	14424,67
875	14248,08
876	14078,97
877	13911,98
878	13757,38
879	13650,07
880	13672,42
881	13705,66
882	13646,33
883	13578,57
884	13621,52
885	13518,3
886	13506,95
887	13587,46
888	13557,62
889	13450,54
890	13412,62
891	13315,96
892	13194,13
893	12980,56
894	12835,8
895	12724,04
896	12737,96
897	12706,48
898	12688,34
899	12584,42
900	12507,65
901	11992,5
902	11628,55
903	11367,93
904	11339,84
905	11504,15
906	11729,66
907	11841,42
908	11860,85
909	11959,03
910	11892,91
911	11955,17
912	11996,6
913	11976,35
914	12014,5
915	11977,41
916	11977,29
917	11988,29
918	12040,48
919	12107,66
920	12171,09
921	12129,78
922	12161,96
923	12099,35
924	12128,14
925	12062,25
926	12104,15
927	12109,06
928	12019,18
929	11940,66
930	11968,75
931	11708,24
932	11655,11
933	11613,22
934	11519,25
935	11462,84
936	11511,76
937	11419,66
938	11430,66
939	11423,87
940	11244,47
941	11099,24
942	11017,55
943	10893,15
944	10814,39
945	10703,1
946	10580,11
947	10505,91
948	10286,25
949	10161,74
950	10248,92
951	10016,39
952	9836,64
953	9829,61
954	9699,36
955	9714,81
956	9587,37
957	9464,26
958	9382,34
959	9258,05
960	9166,77
961	8968,3
962	8973,45
963	8954,6
964	8885,32
965	8735,76
966	8641,44
967	8462,04
968	8440,74
969	8372,28
970	8337,17
971	8377,55
972	8426,58
973	8273,74
974	8289,66
975	8255,84
976	8253,97
977	8189,83
978	8147,35
979	8066,02
980	7958,59
981	7875,15
982	7835,59
983	7773,57
984	7664,97
985	7571,7
986	7476,67
987	7408,33
988	7365,15
989	7238,87
990	7220,62
991	7286,5
992	7222,96
993	7114,48
994	6969,83
995	6917,87
996	6860,88
997	6825,54
998	6776,62
999	6713,42
1000	6694,23
1001	6627,41
1002	6618,75
1003	6584,81
1004	6565,97
1005	6521,5
1006	6523,02
1007	6545,84
1008	6513,54
1009	6464,63
1010	6467,43
1011	6469,19
1012	6454,44
1013	6352,86
1014	6316,12
1015	6286,28
1016	6329,46
1017	6251,64
1018	6296,34
1019	6277,85
1020	6228
1021	6202,37
1022	6152,75
1023	6049,41
1024	6041,92
1025	5997,45
1026	5951,81
1027	5895,64
1028	5897,86
1029	5849,18
1030	5839,59
1031	5845,32
1032	5764,45
1033	5754,51
1034	5724,31
1035	5701,84
1036	5613,26
1037	5640,05
1038	5528,29
1039	5555,09
1040	5478,91
1041	5418,17
1042	5385,76
1043	5374,4
1044	5320,1
1045	5282,07
1046	5189,27
1047	5116,24
1048	5095,06
1049	5151,47
1050	5157,2
1051	5123,03
1052	5101,5
1053	5062,88
1054	5046,38
1055	5013,73
1056	5005,89
1057	5004,37
1058	4986,11
1059	4854,92
1060	4809,63
1061	4637,6
1062	4443,1
1063	4261,01
1064	4212,56
1065	4276,93
1066	4345,86
1067	4407,41
1068	4480,9
1069	4528,65
1070	4497,52
1071	4488,51
1072	4523,03
1073	4500,21
1074	4502,32
1075	4512,03
1076	4470,02
1077	4487,46
1078	4410,1
1079	4407,76
1080	4383,77
1081	4344,69
1082	4306,53
1083	4285,94
1084	4269,91
1085	4234,21
1086	4215,96
1087	4138,02
1088	4147,96
1089	4082,19
1090	4101,62
1091	4029,65
1092	4024,73
1093	3994,19
1094	3966,22
1095	3927,72
1096	3885,94
1097	3878,92
1098	3818,53
1099	3785,65
1100	3715,67
1101	3715,55
1102	3672,48
1103	3643,58
1104	3647,09
1105	3609,76
1106	3579,21
1107	3564,82
1108	3520,35
1109	3509,7
1110	3451,19
1111	3451,42
1112	3443,23
1113	3404,14
1114	3359,44
1115	3363,06
1116	3308,06
1117	3280,79
1118	3236,32
1119	3250,48
1120	3218,07
1121	3179,68
1122	3151,13
1123	3104,2
1124	3086,76
1125	3089,22
1126	3074,83
1127	2991,62
1128	2984,37
1129	2957,1
1130	2932,17
1131	2890,28
1132	2852,24
1133	2867,46
1134	2843
1135	2748,44
1136	2620,41
1137	2436,8
1138	2234,11
1139	2166,35
1140	2173,25
1141	2178,52
1142	2144,82
1143	2145,05
1144	2160,15
1145	2189,64
1146	2203,33
1147	2250,02
1148	2260,09
1149	2269,92
1150	2280,8
1151	2289,23
1152	2286,89
1153	2297,18
1154	2275,89
1155	2281,15
1156	2236,1
1157	2247,92
1158	2240,43
1159	2230,36
1160	2228,02
1161	2230,71
1162	2238,2
1163	2233,64
1164	2215,73
1165	2189,64
1166	2165,76
1167	2169,27
1168	2121,88
1169	2127,03
1170	2079,75
1171	2082,67
1172	2073,08
1173	2048,74
1174	2017,14
1175	2008,36
1176	1999,47
1177	2010,35
1178	1986,6
1179	1990,93
1180	1992,68
1181	1984,84
1182	1975,59
1183	1974,31
1184	1948,56
1185	1951,96
1186	1926,68
1187	1946,92
1188	1919,19
1189	1913,45
1190	1898,71
1191	1913,69
1192	1865,24
1193	1844,64
1194	1863,37
1195	1861,73
1196	1814,1
1197	1822,64
1198	1806,96
1199	1822,76
1200	1809,42
1201	1782,15
1202	1781,92
1203	1760,38
1204	1744
1205	1700,47
1206	1725,16
1207	1689,82
1208	1681,51
1209	1657,28
1210	1616,79
1211	1546,93
1212	1525,98
1213	1441,84
1214	1422,76
1215	1373,38
1216	1352,08
1217	1323,76
1218	1296,25
1219	1286,78
1220	1330,78
1221	1344,12
1222	1399,47
1223	1406,38
1224	1417,96
1225	1411,64
1226	1388,35
1227	1348,1
1228	1333
1229	1322,23
1230	1294,03
1231	1296,14
1232	1294,27
1233	1261,5
1234	1268,75
1235	1268,4
1236	1278,23
1237	1252,84
1238	1244,53
1239	1247,92
1240	1250,38
1241	1242,54
1242	1222,41
1243	1239,15
1244	1245,23
1245	1252,14
1246	1238,68
1247	1239,5
1248	1249,56
1249	1239,61
1250	1256,58
1251	1242,42
1252	1243,01
1253	1260,91
1254	1260,68
1255	1248,86
1256	1247,69
1257	1260,44
1258	1236,57
1259	1231,3
1260	1227,56
1261	1235,63
1262	1209,89
1263	1203,34
1264	1199,01
1265	1202,28
1266	1171,74
1267	1186,83
1268	1173,03
1269	1151,84
1270	1159,22
1271	1136,51
1272	1150,79
1273	1174,31
1274	1136,4
1275	1131,71
1276	1114,04
1277	1109,6
1278	1127,97
1279	1099,3
1280	1114,39
1281	1130,43
1282	1102,46
1283	1085,96
1284	1070,39
1285	1073,67
1286	1081,16
1287	1071,8
1288	1050,38
1289	1053,19
1290	1023,23
1291	1031,66
1292	1029,55
1293	996,08
1294	1023,11
1295	1010,48
1296	988,47
1297	1022,65
1298	1001,58
1299	1002,52
1300	986,48
1301	981,8
1302	992,69
1303	997,37
1304	977,24
1305	992,69
1306	967,18
1307	964,25
1308	973,49
1309	957,7
1310	944,47
1311	944,47
1312	926,22
1313	929,38
1314	914,4
1315	895,2
1316	815,04
1317	755,36
1318	619,37
1319	552,08
1320	520,25
1321	505,97
1322	496,96
1323	513,58
1324	518,61
1325	504,69
1326	501,41
1327	509,72
1328	510,19
1329	522,24
1330	545,53
1331	555,01
1332	574,43
1333	609,66
1334	634,82
1335	643,95
1336	673,2
1337	668,05
1338	694,74
1339	681,86
1340	707,38
1341	709,01
1342	706,44
1343	709,01
1344	710,89
1345	700,82
1346	704,92
1347	686,9
1348	691,58
1349	696,96
1350	690,06
1351	675,43
1352	673,32
1353	682,57
1354	675,43
1355	676,6
1356	686,19
1357	674,96
1358	648,63
1359	641,72
1360	662,55
1361	644,53
1362	665,6
1363	645,7
1364	637,04
1365	639,85
1366	632,83
1367	623,94
1368	613,29
1369	618,44
1370	624,52
1371	628,38
1372	629,44
1373	616,91
1374	605,91
1375	623
1376	591,17
1377	610,13
1378	593,86
1379	604,04
1380	604,63
1381	582,51
1382	583,21
1383	596,67
1384	585,32
1385	587,66
1386	577,12
1387	571,51
1388	565,89
1389	557,23
1390	553,6
1391	558,05
1392	568,35
1393	560,16
1394	554,19
1395	544,01
1396	545,06
1397	551,03
1398	538,97
1399	535
1400	521,77
1401	545,29
1402	522,71
1403	527,15
1404	531,95
1405	523,06
1406	520,72
1407	511,82
1408	521,3
1409	525,87
1410	514,4
1411	529,14
1412	512,41
1413	512,64
1414	501,64
1415	509,72
1416	504,69
1417	517,21
1418	503,05
1419	493,68
1420	503,98
1421	490,76
1422	496,38
1423	500,59
1424	495,09
1425	476,95
1426	489,35
1427	468,64
1428	485,26
1429	485,14
1430	467,24
1431	471,1
1432	494,27
1433	476,36
1434	482,22
1435	471,22
1436	492,51
1437	468,17
1438	475,08
1439	481,98
1440	482,68
1441	479,76
1442	457,41
1443	459,51
1444	460,22
1445	453,43
1446	459,28
1447	458,46
1448	459,86
1449	451,91
1450	457,87
1451	458,23
1452	454,25
1453	438,21
1454	444,42
1455	420,54
1456	430,96
1457	421,36
1458	449,1
1459	414,69
1460	425,11
1461	409,54
1462	418,9
1463	427,8
1464	413,99
1465	411,65
1466	427,68
1467	422,65
1468	424,99
1469	406,85
1470	405,45
1471	413,4
1472	393,98
1473	435,52
1474	413,29
1475	402,05
1476	403,93
1477	394,56
1478	402,75
1479	403,81
1480	395,27
1481	408,96
1482	413,05
1483	413,76
1484	410,71
1485	420,19
1486	396,67
1487	406,27
1488	415,28
1489	406,5
1490	401,58
1491	397,61
1492	395,85
1493	396,79
1494	395,97
1495	400,53
1496	394,21
1497	393,74
1498	405,1
1499	403,69
1500	400,18
1501	391,4
1502	393,63
1503	403,11
1504	397,72
1505	402,29
1506	391,4
1507	405,21
1508	390,12
1509	402,99
1510	407,44
1511	398,78
1512	411,88
1513	389,77
1514	395,62
1515	396,79
1516	393,16
1517	385,67
1518	395,73
1519	397,49
1520	387,42
1521	388,13
1522	406,85
1523	385,79
1524	384,03
1525	386,96
1526	385,2
1527	388,95
1528	391,05
1529	381,46
1530	387,31
1531	385,79
1532	394,21
1533	392,46
1534	393,63
1535	382,28
1536	369,64
1537	391,17
1538	388,13
1539	376,66
1540	375,49
1541	386,25
1542	382,04
1543	374,08
1544	370,92
1545	389,41
1546	375,72
1547	374,43
1548	364,25
1549	369,75
1550	378,53
1551	366,48
1552	359,69
1553	365,19
1554	377,59
1555	365,77
1556	357,47
1557	378,88
1558	367,3
1559	346,47
1560	350,33
1561	366,24
1562	351,97
1563	360,86
1564	361,8
1565	362,97
1566	366,83
1567	362,38
1568	372,56
1569	365,77
1570	344,83
1571	361,68
1572	358,4
1573	357
1574	369,05
1575	367,41
1576	344,12
1577	365,07
1578	364,14
1579	360,74
1580	343,19
1581	350,09
1582	351,03
1583	348,1
1584	355,59
1585	358,52
1586	348,92
1587	343,07
1588	356,53
1589	352,55
1590	349,39
1591	349,98
1592	342,37
1593	357,47
1594	349,04
1595	338,86
1596	336,87
1597	341,08
1598	351,73
1599	356,65
1600	356,88
1601	345,41
1602	352,55
1603	354,31
1604	347,64
1605	342,14
1606	335,93
1607	354,07
1608	342,72
1609	338,51
1610	350,68
1611	338,74
1612	353,37
1613	345,88
1614	329,85
1615	340,15
1616	343,07
1617	341,67
1618	340,73
1619	338,62
1620	328,33
1621	355,13
1622	338,04
1623	339,09
1624	338,74
1625	348,69
1626	337,34
1627	346,47
1628	351,38
1629	330,32
1630	337,34
1631	340,03
1632	338,27
1633	348,69
1634	339,68
1635	327,97
1636	358,75
1637	338,98
1638	345,41
1639	337,57
1640	345,76
1641	342,6
1642	339,09
1643	353,95
1644	364,25
1645	337,69
1646	329,96
1647	349,27
1648	318,61
1649	328,09
1650	340,85
1651	322,94
1652	329,26
1653	337,1
1654	355,01
1655	343,42
1656	341,32
1657	349,39
1658	345,65
1659	347,52
1660	337,1
1661	332,19
1662	337,45
1663	335,82
1664	343,42
1665	327,86
1666	335,93
1667	331,37
1668	327,04
1669	341,9
1670	330,08
1671	331,6
1672	329,03
1673	322,83
1674	343,31
1675	319,9
1676	324,11
1677	314,4
1678	342,37
1679	334,18
1680	315,34
1681	331,95
1682	335,23
1683	341,55
1684	327,86
1685	320,49
1686	326,69
1687	329,26
1688	324,93
1689	320,49
1690	337,34
1691	316,51
1692	332,89
1693	310,42
1694	333,94
1695	318,96
1696	327,62
1697	318,5
1698	314,4
1699	315,8
1700	314,28
1701	324,35
1702	328,09
1703	328,44
1704	325,63
1705	331,84
1706	340,15
1707	314,98
1708	314,87
1709	342,84
1710	337,69
1711	320,49
1712	315,57
1713	323,18
1714	323,88
1715	326,45
1716	325,17
1717	315,1
1718	309,72
1719	311,94
1720	322,36
1721	319,08
1722	336,05
1723	329,61
1724	325,63
1725	318,38
1726	320,49
1727	325,52
1728	320,84
1729	322,36
1730	319,55
1731	324,7
1732	326,69
1733	320,13
1734	331,49
1735	316,16
1736	320,25
1737	318,14
1738	333,36
1739	320,72
1740	337,1
1741	335,7
1742	313,11
1743	315,45
1744	317,09
1745	316,16
1746	319,9
1747	305,74
1748	321,3
1749	321,89
1750	316,04
1751	338,16
1752	333,12
1753	325,87
1754	310,65
1755	309,02
1756	295,79
1757	328,79
1758	314,4
1759	315,69
1760	307,61
1761	329,03
1762	308,67
1763	325,05
1764	325,4
1765	302,93
1766	309,48
1767	314,75
1768	308,67
1769	322,59
1770	311,94
1771	319,08
1772	315,22
1773	310,07
1774	321,77
1775	316,16
1776	310,42
1777	319,43
1778	310,65
1779	319,78
1780	315,45
1781	319,9
1782	328,44
1783	315,34
1784	314,75
1785	313,23
1786	313,93
1787	308,08
1788	305,04
1789	325,17
1790	306,91
1791	303,75
1792	330,2
1793	325,4
1794	310,65
1795	318,03
1796	328,44
1797	311,94
1798	298,02
1799	306,79
1800	327,74
1801	316,86
1802	311,71
1803	311,12
1804	329,03
1805	311,12
1806	318,5
1807	309,6
1808	299,3
1809	319,55
1810	314,75
1811	304,92
1812	307,26
1813	313
1814	325,4
1815	295,79
1816	315,8
1817	314,28
1818	321,54
1819	321,19
1820	305,74
1821	305,74
1822	311,12
1823	303,63
1824	306,32
1825	311,47
1826	297,66
1827	310,89
1828	324,46
1829	332,54
1830	314,17
1831	307,38
1832	324,82
1833	310,07
1834	323,06
1835	323,53
1836	322,36
1837	314,05
1838	304,22
1839	310,65
1840	302,58
1841	329,5
1842	317,91
1843	311,36
1844	318,73
1845	316,39
1846	301,53
1847	327,97
1848	320,02
1849	323,53
1850	315,1
1851	325,28
1852	312,88
1853	317,09
1854	314,05
1855	315,8
1856	300,47
1857	318,61
1858	317,91
1859	310,42
1860	318,61
1861	304,92
1862	314,28
1863	309,13
1864	319,43
1865	307,14
1866	310,3
1867	316,97
1868	312,18
1869	305,97
1870	305,04
1871	303,52
1872	308,67
1873	333,59
1874	321,42
1875	305,27
1876	310,3
1877	324,46
1878	310,77
1879	312,29
1880	314,28
1881	305,51
1882	304,22
1883	321,19
1884	319,08
1885	308,55
1886	303,52
1887	305,04
1888	305,62
1889	308,78
1890	310,65
1891	318,61
1892	316,86
1893	315,69
1894	325,17
1895	302,35
1896	304,1
1897	296,38
1898	298,25
1899	311,71
1900	314,4
1901	300,36
1902	323,76
1903	314,87
1904	315,57
1905	311,83
1906	297,66
1907	320,72
1908	313,7
1909	314,75
1910	303,4
1911	312,29
1912	320,6
1913	327,27
1914	315,1
1915	305,74
1916	320,84
1917	312,41
1918	324,46
1919	315,45
1920	312,06
1921	323,53
1922	302,11
1923	307,5
1924	298,48
1925	318,73
1926	314,98
1927	310,77
1928	313,46
1929	315,22
1930	305,39
1931	314,05
1932	312,64
1933	313,35
1934	308,2
1935	301,88
1936	318,96
1937	315,8
1938	312,06
1939	305,74
1940	316,39
1941	316,86
1942	298,48
1943	310,54
1944	316,86
1945	312,29
1946	314,52
1947	313,81
1948	325,75
1949	307,38
1950	297,78
1951	317,79
1952	317,56
1953	308,08
1954	308,67
1955	312,41
1956	311,24
1957	310,3
1958	320,13
1959	302,46
1960	320,49
1961	302,7
1962	312,53
1963	308,78
1964	316,86
1965	301,41
1966	306,56
1967	303,52
1968	316,86
1969	314,98
1970	320,49
1971	301,99
1972	309,72
1973	303,52
1974	301,76
1975	308,43
1976	306,09
1977	322,01
1978	313,7
1979	311,47
1980	294,62
1981	305,97
1982	331,25
1983	319,55
1984	325,05
1985	318,96
1986	320,95
1987	312,29
1988	305,04
1989	311,94
1990	311,24
1991	315,92
1992	309,48
1993	318,14
1994	318,85
1995	309,72
1996	316,16
1997	314,63
1998	316,16
1999	313,93
2000	300,36
2001	309,13
2002	311,47
2003	296,49
2004	314,87
2005	297,08
2006	306,21
2007	309,02
2008	310,3
2009	318,61
2010	310,42
2011	305,04
2012	317,91
2013	304,57
2014	298,72
2015	317,21
2016	313,46
2017	306,32
2018	313,93
2019	309,6
2020	304,34
2021	309,25
2022	321,3
2023	303,98
2024	308,08
2025	307,14
2026	309,95
2027	319,31
2028	315,57
2029	309,84
2030	298,48
2031	320,84
2032	316,16
2033	313,93
2034	317,09
2035	299,3
2036	308,67
2037	305,15
2038	321,77
2039	314,87
2040	301,41
2041	305,27
2042	311,36
2043	302,35
2044	304,92
2045	315,8
2046	315,8
2047	315,8
