Data from FLMS055071_15-32-23-594.txt Node
Date: Wed Apr 21 15:32:23 CEST 2021
User: au643642
Spectrometer: FLMS05507
Trigger mode: 0
Integration Time (sec): 2,100000E-2
Scans to average: 20
Electric dark correction enabled: true
Nonlinearity correction enabled: false
Boxcar width: 0
XAxis mode: Pixels
Number of Pixels in Spectrum: 2048
>>>>>Begin Spectral Data<<<<<
0	-14,64
1	-14,64
2	-14,64
3	-62,5
4	-75,14
5	-58,99
6	-72,68
7	-82,39
8	-63,67
9	-63,67
10	-37,92
11	-34,41
12	-7,38
13	0,58
14	12,16
15	31,47
16	43,88
17	59,56
18	78,63
19	90,22
20	104,61
21	128,14
22	126,62
23	196,71
24	311,87
25	305,67
26	290,22
27	325,33
28	333,05
29	338,79
30	348,62
31	364,41
32	368,74
33	363,59
34	372,84
35	387,82
36	379,04
37	403,62
38	385,6
39	393,9
40	413,33
41	389,57
42	406,31
43	401,86
44	395,08
45	396,71
46	405,96
47	400,34
48	396,25
49	397,18
50	388,4
51	400,46
52	387,35
53	380,45
54	386,3
55	383,02
56	379,74
57	394,84
58	373,66
59	377,99
60	391,8
61	375,65
62	373,78
63	378,57
64	374,83
65	375,53
66	377,05
67	371,32
68	369,8
69	382,44
70	369,68
71	375,41
72	362,66
73	358,68
74	369,91
75	379,51
76	373,54
77	363,71
78	357,51
79	372,14
80	354,93
81	364,18
82	368,98
83	379,16
84	377,17
85	375,88
86	373,78
87	347,8
88	376,82
89	380,21
90	361,61
91	368,98
92	382,55
93	388,17
94	362,31
95	383,26
96	362,78
97	386,06
98	373,54
99	356,22
100	377,17
101	379,98
102	370,97
103	382,44
104	392,5
105	373,78
106	390,39
107	365,35
108	378,34
109	376,12
110	372,25
111	372,37
112	394,49
113	370,97
114	372,96
115	372,84
116	377,29
117	388,4
118	373,54
119	382,9
120	377,29
121	370,62
122	373,43
123	365,12
124	374,36
125	372,37
126	369,8
127	378,34
128	381,62
129	383,26
130	366,75
131	365,94
132	386,18
133	377,52
134	373,07
135	366,99
136	367,69
137	378,22
138	377,87
139	383,02
140	377,4
141	388,4
142	388,52
143	387,35
144	382,2
145	386,53
146	376,7
147	380,33
148	376,7
149	369,68
150	382,44
151	376,82
152	395,08
153	382,32
154	393,44
155	387
156	393,67
157	383,72
158	372,96
159	371,55
160	378,46
161	389,46
162	385,24
163	381,62
164	385,95
165	392,73
166	391,1
167	403,97
168	385,48
169	388,4
170	373,43
171	394,02
172	385,36
173	380,33
174	392,5
175	377,05
176	388,64
177	387,82
178	364,88
179	386,18
180	397,06
181	385,01
182	377,99
183	392,73
184	398,12
185	395,08
186	395,66
187	382,32
188	384,54
189	394,96
190	375,53
191	367,69
192	390,86
193	373,07
194	373,43
195	395,08
196	402,8
197	378,22
198	398,12
199	387
200	387,47
201	384,54
202	400,69
203	382,79
204	393,32
205	389,46
206	408,77
207	398,47
208	390,39
209	410,29
210	387,7
211	386,77
212	376,7
213	390,75
214	376,35
215	394,37
216	379,63
217	398
218	385,13
219	396,71
220	394,26
221	397,18
222	392,97
223	386,06
224	403,27
225	379,04
226	395,54
227	398,23
228	382,79
229	401,51
230	391,21
231	391,8
232	392,85
233	386,88
234	404,44
235	387,94
236	398,12
237	390,63
238	396,01
239	381,73
240	382,2
241	386,53
242	403,62
243	384,07
244	383,02
245	398,7
246	403,38
247	369,1
248	390,86
249	391,56
250	379,04
251	380,56
252	393,32
253	392,97
254	393,79
255	388,05
256	390,51
257	390,28
258	395,89
259	397,06
260	409,59
261	395,43
262	383,72
263	392,73
264	394,14
265	404,79
266	414,85
267	396,83
268	396,71
269	390,16
270	396,95
271	404,2
272	399,52
273	397,53
274	396,95
275	393,2
276	380,33
277	406,54
278	404,44
279	394,02
280	403,97
281	399,64
282	406,78
283	399,41
284	395,19
285	385,13
286	391,33
287	401,51
288	395,78
289	394,14
290	398,35
291	404,67
292	381,97
293	400,34
294	383,26
295	388,99
296	401,75
297	389,57
298	398,82
299	402,68
300	404,09
301	403,74
302	387,47
303	391,56
304	387,82
305	398,82
306	394,49
307	394,37
308	394,37
309	398,94
310	408,42
311	401,75
312	394,14
313	398,94
314	387,47
315	403,5
316	403,03
317	412,75
318	407,36
319	387,94
320	403,85
321	403,15
322	410,87
323	390,75
324	410,41
325	401,63
326	397,53
327	389,46
328	399,52
329	401,04
330	401,04
331	398,23
332	400,58
333	397,18
334	414,5
335	388,05
336	395,19
337	386,77
338	413,33
339	410,41
340	402,33
341	408,88
342	405,96
343	387,94
344	395,19
345	408,53
346	395,43
347	410,76
348	406,19
349	413,57
350	404,32
351	404,09
352	406,31
353	399,76
354	400,34
355	396,01
356	400,22
357	390,16
358	402,1
359	409,12
360	410,64
361	401,98
362	396,25
363	402,68
364	404,79
365	408,88
366	411,93
367	421,17
368	413,68
369	405,61
370	396,83
371	404,67
372	397,42
373	415,55
374	396,13
375	404,2
376	400,81
377	427,26
378	408,07
379	407,95
380	417,19
381	420
382	410,05
383	403,27
384	409,7
385	400,81
386	412,98
387	410,64
388	392,97
389	426,56
390	404,44
391	412,75
392	420,47
393	403,27
394	415,32
395	410,87
396	407,01
397	413,21
398	412,51
399	410,41
400	419,65
401	415,2
402	420,47
403	411,11
404	413,68
405	426,67
406	433,34
407	425,74
408	403,27
409	403,62
410	426,44
411	408,07
412	423,16
413	417,78
414	418,36
415	438,26
416	417,19
417	431,47
418	428,19
419	428,43
420	435,92
421	421,76
422	432,52
423	433,69
424	434,98
425	419,42
426	430,42
427	431,35
428	417,66
429	439,78
430	443,64
431	416,73
432	434,05
433	433,23
434	422,69
435	447,15
436	428,43
437	445,16
438	426,67
439	452,54
440	434,05
441	452,07
442	454,88
443	458,04
444	457,8
445	468,57
446	468,1
447	481,79
448	498,18
449	504,61
450	482,14
451	521,82
452	547,44
453	562,31
454	612,98
455	652,77
456	702,86
457	714,68
458	755,52
459	845,75
460	995,66
461	1221,64
462	1479,68
463	1730,82
464	2024,44
465	2363,93
466	2719,93
467	3164,63
468	3555,15
469	4096,87
470	4618,57
471	5081,88
472	5528,57
473	6076,14
474	6726,34
475	7345,53
476	7804,51
477	8476,83
478	9067,93
479	9647,91
480	10087,35
481	10676,81
482	11280,2
483	12301,15
484	13030,93
485	14099,5
486	14933,43
487	14833,25
488	14980,01
489	15754,61
490	16691,76
491	17892,1
492	18673,61
493	19341,13
494	19589,93
495	19936,68
496	20312,21
497	21035,91
498	21557,26
499	21163,7
500	22298,16
501	22293,95
502	22815,42
503	23196,22
504	22908,1
505	22773,17
506	23052,05
507	23239,17
508	23696,28
509	23251,11
510	23740,63
511	24262,69
512	24689,6
513	25716,75
514	25660,22
515	25563,56
516	24438,58
517	24930,21
518	25052,97
519	24971,75
520	25512,42
521	25805,45
522	25477,08
523	25617,16
524	25693,57
525	25819,96
526	25011,07
527	25040,45
528	24373,98
529	24984,28
530	24820,79
531	23824,77
532	22878,26
533	21685,41
534	20149,08
535	20170,61
536	21019,52
537	23042,22
538	24690,19
539	25125,06
540	25911,83
541	25958,99
542	25390,36
543	25239,28
544	26587,43
545	27012,35
546	27475,89
547	28189,99
548	28640,89
549	28695,9
550	28364,13
551	27749,15
552	27605,91
553	27045,82
554	27268,29
555	28038,32
556	27923,52
557	28312,99
558	29260,32
559	29639,25
560	30396,88
561	31129,7
562	31570,78
563	30938,72
564	30851,53
565	32581,42
566	32144,09
567	32223,2
568	31922,44
569	31503,49
570	31633,85
571	32270,36
572	32631,86
573	32021,21
574	33801,66
575	34463,91
576	33267,2
577	34096,45
578	34587,61
579	35041,09
580	35857,12
581	36407,26
582	36062,26
583	35477,72
584	35259,46
585	34614,06
586	35336,93
587	34997,67
588	34483,22
589	34964,32
590	35084,39
591	35639,45
592	35286,73
593	35983,15
594	36360,8
595	36614,28
596	36578,35
597	36323,7
598	35639,33
599	35199,78
600	36333,3
601	35316,92
602	36545,82
603	36956,58
604	37387,13
605	37638,5
606	38378,58
607	38302,16
608	39042,94
609	38394,61
610	38472,9
611	38409
612	38392,03
613	38476,88
614	38304,5
615	38177,99
616	38957,62
617	38199,52
618	38740,66
619	38530,83
620	38332,12
621	39471,84
622	40332,92
623	40424,56
624	40046,44
625	39786,41
626	40943,57
627	40485,88
628	41723,08
629	42654,38
630	43668,07
631	43314,65
632	43226,41
633	44223,24
634	44421,14
635	45655,07
636	46782,85
637	47085,72
638	46976,53
639	46794,56
640	48231,76
641	48371,61
642	50035,73
643	49989,51
644	50181,08
645	50810,1
646	51848,59
647	52338,7
648	52809,27
649	53246,95
650	53558,47
651	54063,56
652	54726,52
653	54620,49
654	55052,32
655	55132,13
656	54945,94
657	54877,36
658	54930,61
659	54882,04
660	53101,01
661	51406
662	50451,64
663	50916,71
664	51847,89
665	53075,97
666	53853,96
667	54237,23
668	54855,25
669	55523,82
670	56372,5
671	56830,54
672	56972,84
673	56826,21
674	56525,57
675	55974,61
676	56226,68
677	56615,33
678	56598,36
679	57053,36
680	57142,65
681	57902,15
682	57908,59
683	57946,39
684	58070,67
685	57906,02
686	58259,32
687	58297,59
688	58091,15
689	57726,26
690	57396,36
691	57504,61
692	57801,04
693	57462,25
694	57089,05
695	56649,62
696	56489,64
697	56204,1
698	56023,99
699	56425,16
700	56819,42
701	56843,76
702	56917,26
703	56760,79
704	56957,28
705	57255
706	57887,41
707	58149,78
708	58167,34
709	58320,29
710	58154,23
711	57870,67
712	57587,94
713	57491,62
714	57887,76
715	58020
716	58078,05
717	57788,76
718	57975,3
719	58187,23
720	58081,91
721	58558,09
722	58177,17
723	57894,31
724	57549,79
725	57391,8
726	57040,37
727	56863,89
728	57002,57
729	57072,67
730	57170,5
731	56235,34
732	54828,33
733	53392,06
734	53392,88
735	53571,46
736	53325,24
737	53842,96
738	54217,8
739	55275,61
740	55505,21
741	56046,46
742	56287,54
743	56578,35
744	56770,27
745	56676,3
746	56197,07
747	55897,84
748	56306,73
749	56540,31
750	56884,02
751	56934,81
752	56705,91
753	56743,12
754	55760,33
755	54660,4
756	53680,18
757	53625,29
758	54195,1
759	54800,94
760	55246,47
761	55642,37
762	55817,44
763	55837,1
764	55987,25
765	56235,69
766	56466,59
767	56252,31
768	55621,77
769	54865,66
770	54453,38
771	54473,39
772	54492,81
773	54405,04
774	54749,34
775	55085,09
776	55202,35
777	55507,9
778	54987,6
779	54769,35
780	54129,21
781	54422,83
782	54633,95
783	54361,28
784	54195,92
785	54010,43
786	53147,71
787	52782,93
788	52391,25
789	52398,97
790	52632,2
791	52873,28
792	52679,02
793	52717,75
794	52670,82
795	53366,31
796	53048,59
797	53323,95
798	53109,32
799	53134,48
800	53128,28
801	53038,99
802	52925,82
803	52666,38
804	52427,76
805	52011,85
806	52222,73
807	52104,18
808	52562,69
809	52296,57
810	52195,93
811	52143,97
812	51836,19
813	51920,8
814	51911,9
815	51940,69
816	51814,89
817	51563,87
818	51371,01
819	51492,71
820	51571,47
821	51867,55
822	51735,31
823	51490,37
824	51415,01
825	50805,3
826	50416,07
827	49985,99
828	49789,27
829	49587,05
830	48987,41
831	48401,1
832	48100,23
833	48058,1
834	48386,47
835	48439,49
836	48654,58
837	48629,54
838	48068,51
839	48214,68
840	48240,42
841	48026,85
842	47785,07
843	48101,28
844	47693,32
845	47521,06
846	47351,84
847	46973,37
848	46520,13
849	46534,06
850	46704,8
851	47062,67
852	46927,73
853	46596,66
854	46457,52
855	46610,36
856	46467,12
857	46701,4
858	45921,77
859	45953,6
860	45718,03
861	46055,88
862	46463,14
863	46789,53
864	46769,51
865	46615,51
866	46614,22
867	46179,82
868	46040,09
869	45273,79
870	44851,68
871	44094,4
872	44213,41
873	43859,41
874	43594,46
875	43136,65
876	42580,19
877	42010,85
878	41617,06
879	41469,25
880	41614,37
881	41662,35
882	41581,72
883	41339,59
884	41440
885	41265,86
886	41238,94
887	41522,85
888	41349,65
889	41142,16
890	40992,14
891	40812,73
892	40586,05
893	39971,08
894	39548,73
895	38903,21
896	39240,83
897	39123,69
898	39072,19
899	38877,58
900	38539,49
901	37150,61
902	35921,95
903	35189,01
904	35179,18
905	35864,61
906	36408,55
907	36837,92
908	36999,3
909	37259,33
910	37039,32
911	37300,41
912	37486,25
913	37399,06
914	37567,58
915	37598,36
916	37442,01
917	37590,28
918	37792,04
919	38091,63
920	38264,12
921	38306,02
922	38474,54
923	38180,8
924	38231,82
925	38166,29
926	38131,18
927	38166,76
928	37821,41
929	37925,21
930	37888,47
931	37212,52
932	37036,16
933	36943,48
934	36599,42
935	36515,51
936	36767,23
937	36400,82
938	36440,73
939	36287,78
940	35854,43
941	35534,01
942	35267,07
943	34856,3
944	34519,73
945	34364,79
946	33861,34
947	33624,25
948	32961,87
949	32559,54
950	32759,3
951	31962,93
952	31628,94
953	31529,82
954	31138,95
955	31160,25
956	30774,29
957	30523,15
958	30202,62
959	29876,46
960	29540,83
961	29083,49
962	28921,76
963	28794,08
964	28687,82
965	28343,18
966	27981,8
967	27422,76
968	27297,31
969	27188,24
970	27200,41
971	27250,03
972	27266,77
973	26972,44
974	26961,21
975	26957
976	26838,21
977	26663,84
978	26562,85
979	26311,24
980	25982,75
981	25736,41
982	25651,44
983	25256,01
984	25022,54
985	24775,27
986	24510,55
987	24209,44
988	23987,91
989	23773,87
990	23700,96
991	23752,22
992	23553,86
993	23402,66
994	22894,64
995	22635,2
996	22385,46
997	22455,79
998	22258,49
999	22089,27
1000	21860,71
1001	21732,1
1002	21763,11
1003	21641,87
1004	21601,85
1005	21525,08
1006	21484,12
1007	21533,62
1008	21380,67
1009	21322,86
1010	21120,87
1011	21247,61
1012	21158,9
1013	21071,25
1014	20918,18
1015	20743,22
1016	20801,15
1017	20661,42
1018	20675,47
1019	20811,69
1020	20577,98
1021	20365,46
1022	20389,1
1023	20101,1
1024	19880,5
1025	19821,4
1026	19698,88
1027	19457,92
1028	19430,54
1029	19248,79
1030	19324,27
1031	19352,36
1032	19112,34
1033	19099,93
1034	18974,01
1035	18887,3
1036	18657,57
1037	18643,65
1038	18391,34
1039	18270,1
1040	18096,55
1041	17977,76
1042	17739,15
1043	17799,3
1044	17605,5
1045	17422
1046	17170,51
1047	16956,94
1048	16986,66
1049	17114,22
1050	17093,04
1051	16965,01
1052	16871,63
1053	16749,22
1054	16679,7
1055	16626,46
1056	16648,93
1057	16595,33
1058	16463,91
1059	16093,98
1060	15908,26
1061	15313,88
1062	14553,91
1063	14040,05
1064	13696,81
1065	14040,75
1066	14312,13
1067	14639,69
1068	14859,35
1069	15047,88
1070	14969,94
1071	14889,54
1072	14866,61
1073	14902,65
1074	14922,55
1075	14946,07
1076	14822,02
1077	14790,54
1078	14655,96
1079	14590,19
1080	14532,38
1081	14306,63
1082	14283,35
1083	14200,26
1084	14092,24
1085	14030,45
1086	13941,98
1087	13778,96
1088	13682,3
1089	13516,35
1090	13403,07
1091	13282,06
1092	13240,05
1093	13182,71
1094	12975,69
1095	12999,09
1096	12803,07
1097	12737,66
1098	12582,95
1099	12484,29
1100	12281,95
1101	12317,76
1102	12119,4
1103	12055,86
1104	12074,47
1105	11828,94
1106	11813,03
1107	11679,5
1108	11553,58
1109	11463
1110	11329,12
1111	11344,34
1112	11247,09
1113	11023,1
1114	11009,87
1115	10953,47
1116	10855,05
1117	10746,09
1118	10575,35
1119	10586,59
1120	10507,94
1121	10327,96
1122	10260,08
1123	10160,14
1124	10080,56
1125	9978,52
1126	9969,74
1127	9846,74
1128	9763,07
1129	9609,53
1130	9493,91
1131	9317,2
1132	9325,04
1133	9208,95
1134	9049,21
1135	8900,11
1136	8409,89
1137	7705,97
1138	7107,61
1139	6905,86
1140	6872,04
1141	6862,56
1142	6817,04
1143	6816,22
1144	6853,9
1145	6902,82
1146	6989,18
1147	7025,7
1148	7161,8
1149	7191,17
1150	7238,8
1151	7267,71
1152	7318,15
1153	7250,86
1154	7242,08
1155	7218,44
1156	7125,87
1157	7117,8
1158	7087,02
1159	7061,51
1160	7131,37
1161	7062,21
1162	7082,34
1163	6991,06
1164	7063,03
1165	6979,94
1166	6909,37
1167	6888,66
1168	6728,45
1169	6681,87
1170	6546
1171	6597,61
1172	6522,36
1173	6390,83
1174	6338,16
1175	6308,44
1176	6306,57
1177	6278,13
1178	6243,25
1179	6273,92
1180	6257,88
1181	6241,85
1182	6140,74
1183	6212,83
1184	6113,59
1185	6066,66
1186	5997,85
1187	6046,77
1188	6001,71
1189	6003,35
1190	5919,68
1191	5903,88
1192	5841,38
1193	5765,79
1194	5812,01
1195	5798,79
1196	5699,2
1197	5704,93
1198	5654,84
1199	5604,64
1200	5548
1201	5583,34
1202	5426,52
1203	5411,43
1204	5347,53
1205	5318,39
1206	5256,25
1207	5228,28
1208	5182,17
1209	5057,66
1210	4902,01
1211	4696,75
1212	4582,41
1213	4419,98
1214	4248,88
1215	4106,93
1216	4038,82
1217	3924,25
1218	3884,35
1219	3885,75
1220	3912,08
1221	3977,38
1222	4111,14
1223	4179,02
1224	4226,18
1225	4234,96
1226	4149,53
1227	4026,53
1228	3994,94
1229	3885,98
1230	3857,08
1231	3833,79
1232	3782,88
1233	3744,5
1234	3768,49
1235	3757,72
1236	3746,25
1237	3713,72
1238	3674,63
1239	3693,71
1240	3657,9
1241	3636,6
1242	3603,6
1243	3607,69
1244	3601,73
1245	3617,29
1246	3608,05
1247	3587,68
1248	3642,22
1249	3658,13
1250	3698,98
1251	3695,11
1252	3679,67
1253	3739,23
1254	3715,59
1255	3699,33
1256	3666,56
1257	3653,8
1258	3616,82
1259	3585,34
1260	3592,83
1261	3561,82
1262	3554,33
1263	3487,39
1264	3507,4
1265	3459,07
1266	3427,82
1267	3441,75
1268	3401,26
1269	3334,2
1270	3358,19
1271	3300,97
1272	3320,98
1273	3288,09
1274	3250,65
1275	3256,97
1276	3250,29
1277	3219,52
1278	3203,48
1279	3185,81
1280	3150,35
1281	3166,15
1282	3126,25
1283	3138,53
1284	3078,73
1285	3015,07
1286	3032,39
1287	3020,1
1288	2928,71
1289	2936,9
1290	2962,53
1291	2894,88
1292	2863,05
1293	2843,04
1294	2846,79
1295	2816,13
1296	2810,62
1297	2808,4
1298	2798,34
1299	2775,52
1300	2721,57
1301	2739,12
1302	2732,8
1303	2748,25
1304	2725,78
1305	2712,21
1306	2690,67
1307	2697,58
1308	2630,05
1309	2628,88
1310	2629
1311	2605,59
1312	2517,36
1313	2509,98
1314	2499,92
1315	2383,36
1316	2155,39
1317	1845,74
1318	1482,02
1319	1205,95
1320	1016,6
1321	941,71
1322	962,07
1323	1016,6
1324	1028,19
1325	1010,28
1326	1005,14
1327	1010,52
1328	1018,24
1329	1076,41
1330	1130,59
1331	1198,23
1332	1285,53
1333	1355,4
1334	1417,89
1335	1502,62
1336	1559,26
1337	1632,05
1338	1678,74
1339	1708,23
1340	1720,64
1341	1752,59
1342	1741,12
1343	1766,39
1344	1737,72
1345	1742,87
1346	1744,16
1347	1715,49
1348	1684,83
1349	1722,39
1350	1685,3
1351	1654,99
1352	1680,15
1353	1641,29
1354	1616,83
1355	1619,64
1356	1604,9
1357	1573,53
1358	1569,2
1359	1588,87
1360	1552,47
1361	1552,7
1362	1528,83
1363	1510,81
1364	1515,26
1365	1508,94
1366	1480,62
1367	1476,64
1368	1457,8
1369	1421,28
1370	1436,5
1371	1418,47
1372	1410,98
1373	1408,06
1374	1385,12
1375	1392,03
1376	1350,13
1377	1343,23
1378	1355,4
1379	1310,58
1380	1321,93
1381	1317,48
1382	1299,81
1383	1304,61
1384	1307,65
1385	1298,4
1386	1270,32
1387	1260,96
1388	1221,87
1389	1238,49
1390	1224,33
1391	1193,2
1392	1198,82
1393	1187,46
1394	1188,17
1395	1148,73
1396	1151,3
1397	1164,06
1398	1137,26
1399	1124,5
1400	1119,24
1401	1116,55
1402	1112,33
1403	1100,16
1404	1090,8
1405	1103,44
1406	1088,46
1407	1058,27
1408	1048,32
1409	1042,94
1410	1026,67
1411	1047,5
1412	1057,91
1413	1038,02
1414	1029,13
1415	1004,32
1416	1025,38
1417	1010,05
1418	985,36
1419	974,24
1420	998,58
1421	978,57
1422	971,32
1423	962,42
1424	944,05
1425	961,72
1426	949,67
1427	937,26
1428	926,96
1429	904,96
1430	919,12
1431	927,55
1432	912,45
1433	915,38
1434	926,49
1435	912,1
1436	904,14
1437	892,56
1438	884,83
1439	894,55
1440	875,94
1441	855,69
1442	865,17
1443	859,79
1444	843,76
1445	827,61
1446	846,56
1447	842,23
1448	839,31
1449	811,34
1450	807,24
1451	800,81
1452	785,71
1453	778,92
1454	766,17
1455	763,59
1456	722,28
1457	739,37
1458	743,23
1459	719,12
1460	706,6
1461	701,57
1462	702,5
1463	683,9
1464	686,24
1465	694,55
1466	685,18
1467	684,13
1468	681,56
1469	689,51
1470	661,08
1471	675,24
1472	713,15
1473	692,32
1474	698,64
1475	674,18
1476	685,18
1477	643,87
1478	630,65
1479	641,53
1480	639,54
1481	668,68
1482	667,16
1483	654,99
1484	674,89
1485	653,82
1486	673,83
1487	663,89
1488	665,64
1489	653,59
1490	653,47
1491	625,15
1492	630,06
1493	637,44
1494	641,42
1495	632,87
1496	638,61
1497	623,51
1498	614,62
1499	640,95
1500	618,71
1501	610,4
1502	615,55
1503	620,23
1504	598,7
1505	631,59
1506	603,38
1507	607,01
1508	614,38
1509	625,03
1510	625,38
1511	633,34
1512	613,92
1513	620,59
1514	617,66
1515	603,15
1516	617,89
1517	588,99
1518	621,05
1519	584,42
1520	582,9
1521	604,2
1522	597,53
1523	588,29
1524	583,72
1525	587,94
1526	588,29
1527	580,91
1528	596,71
1529	596,6
1530	568,04
1531	562,42
1532	568,74
1533	581,26
1534	573,19
1535	555,87
1536	573,54
1537	571,9
1538	545,34
1539	552,36
1540	564,06
1541	548,5
1542	550,37
1543	570,26
1544	552,48
1545	545,92
1546	536,91
1547	523,69
1548	537,96
1549	533,28
1550	541,83
1551	529,19
1552	528,6
1553	527,32
1554	513,39
1555	526,38
1556	516,9
1557	500,05
1558	489,28
1559	491,74
1560	489,52
1561	490,57
1562	490,1
1563	489,87
1564	491,74
1565	504,38
1566	496,77
1567	496,3
1568	487,76
1569	493,49
1570	496,3
1571	498,29
1572	481,21
1573	498,99
1574	490,69
1575	489,05
1576	481,44
1577	480,04
1578	487,53
1579	484,6
1580	467,87
1581	472,08
1582	471,26
1583	469,04
1584	464,71
1585	460,38
1586	476,17
1587	460,26
1588	474,65
1589	464,12
1590	434,51
1591	433,81
1592	450,66
1593	446,22
1594	444,46
1595	436,74
1596	426,67
1597	435,57
1598	428,9
1599	440,25
1600	452,42
1601	441,18
1602	442,47
1603	451,13
1604	431,47
1605	442,94
1606	432,99
1607	430,89
1608	442,59
1609	442,71
1610	442,71
1611	431,12
1612	444,34
1613	443,99
1614	422,23
1615	431,24
1616	432,99
1617	421,06
1618	425,74
1619	418,36
1620	413,1
1621	417,19
1622	430,07
1623	426,44
1624	429,72
1625	407,48
1626	411,69
1627	415,09
1628	417,54
1629	417,08
1630	413,33
1631	403,97
1632	409,35
1633	405,49
1634	429,6
1635	420,35
1636	407,36
1637	415,09
1638	411,81
1639	414,62
1640	408,88
1641	416,61
1642	407,36
1643	419,65
1644	418,13
1645	428,43
1646	403,27
1647	402,56
1648	410,87
1649	425,5
1650	416,96
1651	405,26
1652	425,27
1653	421,17
1654	413,92
1655	418,48
1656	417,31
1657	421,64
1658	416,26
1659	407,36
1660	405,84
1661	387,23
1662	422,69
1663	411,69
1664	403,15
1665	401,75
1666	403,74
1667	391,92
1668	393,55
1669	382,2
1670	398,47
1671	385,6
1672	390,86
1673	374,6
1674	392,85
1675	390,04
1676	383,26
1677	383,96
1678	375,65
1679	365,47
1680	374,48
1681	378,69
1682	377,05
1683	370,85
1684	379,86
1685	371,32
1686	375,77
1687	381,27
1688	367,81
1689	375,3
1690	362,42
1691	365,94
1692	363,59
1693	363,59
1694	371,79
1695	366,4
1696	359,62
1697	382,9
1698	360,32
1699	366,17
1700	375,41
1701	358,45
1702	356,69
1703	354,93
1704	363,71
1705	355,05
1706	354,23
1707	366,52
1708	366,4
1709	369,21
1710	373,19
1711	345,1
1712	360,67
1713	354,47
1714	354,47
1715	343,47
1716	354,93
1717	356,81
1718	365,47
1719	360,67
1720	357,28
1721	355,17
1722	358,68
1723	359,85
1724	353,65
1725	341,71
1726	359,03
1727	344,4
1728	350,25
1729	366,17
1730	355,52
1731	344,64
1732	345,69
1733	346,51
1734	359,73
1735	351,66
1736	369,45
1737	343,12
1738	338,08
1739	354,93
1740	346,51
1741	343,58
1742	359,15
1743	338,08
1744	355,52
1745	350,72
1746	348,03
1747	347,8
1748	358,33
1749	353,41
1750	352,95
1751	348,73
1752	347,09
1753	350,96
1754	355,29
1755	348,97
1756	331,18
1757	355,52
1758	351,19
1759	335,51
1760	354,23
1761	347,68
1762	340,77
1763	341,24
1764	347,91
1765	330,59
1766	333,87
1767	337,61
1768	340,77
1769	319,59
1770	340,31
1771	329,19
1772	339,96
1773	346,51
1774	332,47
1775	345,92
1776	335,27
1777	340,42
1778	320,65
1779	321,93
1780	330,71
1781	339,37
1782	329,54
1783	337,61
1784	342,88
1785	327,67
1786	338,79
1787	336,8
1788	350,84
1789	342,3
1790	312,69
1791	335,51
1792	338,43
1793	326,5
1794	337,85
1795	317,84
1796	335,04
1797	315,73
1798	321,7
1799	324,51
1800	334,1
1801	335,51
1802	328,84
1803	334,81
1804	332,58
1805	324,62
1806	335,04
1807	335,98
1808	321,7
1809	331,76
1810	316,78
1811	319,59
1812	325,91
1813	331,88
1814	346,86
1815	321,23
1816	333,4
1817	326,61
1818	312,92
1819	322,28
1820	317,14
1821	329,42
1822	342,41
1823	335,98
1824	322,99
1825	332,23
1826	336,09
1827	321
1828	345,34
1829	329,07
1830	326,97
1831	332,93
1832	323,81
1833	336,91
1834	326,85
1835	318,31
1836	320,65
1837	330,59
1838	322,05
1839	334,69
1840	332,82
1841	343,12
1842	330,94
1843	329,77
1844	326,61
1845	331,65
1846	331,65
1847	316,67
1848	313,62
1849	334,92
1850	332
1851	335,74
1852	330,94
1853	326,61
1854	341,24
1855	326,26
1856	325,21
1857	336,56
1858	336,09
1859	323,81
1860	337,38
1861	316,78
1862	341,24
1863	321
1864	330,59
1865	330,59
1866	318,54
1867	345,34
1868	331,3
1869	331,65
1870	322,4
1871	322,17
1872	330,48
1873	323,92
1874	328,25
1875	315,61
1876	342,65
1877	331,76
1878	324,04
1879	322,87
1880	325,21
1881	329,19
1882	324,39
1883	314,56
1884	321,11
1885	332,23
1886	319,12
1887	333,75
1888	326,03
1889	333,87
1890	321,23
1891	335,51
1892	339,72
1893	318,19
1894	340,19
1895	333,28
1896	317,95
1897	329,54
1898	339,96
1899	335,74
1900	315,85
1901	320,18
1902	320,53
1903	321
1904	329,54
1905	316,9
1906	322,52
1907	310,35
1908	333,52
1909	325,91
1910	327,2
1911	328,49
1912	315,5
1913	327,43
1914	332,7
1915	341,59
1916	320,53
1917	336,09
1918	334,1
1919	333,05
1920	327,2
1921	334,34
1922	329,31
1923	324,86
1924	322,17
1925	323,57
1926	322,17
1927	328,84
1928	328,84
1929	319,36
1930	333,87
1931	328,14
1932	332
1933	319,94
1934	316,9
1935	317,72
1936	316,32
1937	332,35
1938	319,24
1939	327,67
1940	324,74
1941	323,92
1942	322,87
1943	323,57
1944	315,15
1945	317,95
1946	328,49
1947	321,82
1948	324,16
1949	339,37
1950	327,2
1951	321,7
1952	300,52
1953	325,44
1954	325,68
1955	320,88
1956	324,04
1957	313,04
1958	306,84
1959	319,83
1960	320,41
1961	335,39
1962	304,03
1963	332,93
1964	331,41
1965	328,95
1966	330,01
1967	311,17
1968	327,78
1969	319,24
1970	331,88
1971	324,62
1972	335,04
1973	321,35
1974	319,12
1975	328,14
1976	308,36
1977	331,06
1978	317,25
1979	331,06
1980	320,76
1981	343,23
1982	326,26
1983	333,87
1984	323,69
1985	317,14
1986	320,06
1987	317,84
1988	316,43
1989	322,28
1990	320,76
1991	316,08
1992	322,52
1993	319,71
1994	322,05
1995	313,27
1996	326,97
1997	323,22
1998	328,37
1999	320,76
2000	332,11
2001	313,27
2002	315,38
2003	315,38
2004	322,52
2005	320,29
2006	321,82
2007	313,04
2008	317,25
2009	312,57
2010	353,53
2011	326,97
2012	315,03
2013	323,22
2014	321
2015	325,56
2016	331,65
2017	316,43
2018	328,49
2019	322,64
2020	326,26
2021	323,45
2022	324,74
2023	322,52
2024	323,34
2025	340,54
2026	322,52
2027	327,32
2028	324,62
2029	327,43
2030	323,81
2031	330,24
2032	326,61
2033	331,65
2034	322,28
2035	313,39
2036	326,97
2037	314,68
2038	323,34
2039	324,86
2040	314,09
2041	316,2
2042	324,51
2043	320,65
2044	316,55
2045	306,72
2046	306,72
2047	306,72
