Data from FLMS055071_15-29-45-001.txt Node
Date: Wed Apr 21 15:29:45 CEST 2021
User: au643642
Spectrometer: FLMS05507
Trigger mode: 0
Integration Time (sec): 2,400000E-2
Scans to average: 20
Electric dark correction enabled: true
Nonlinearity correction enabled: false
Boxcar width: 0
XAxis mode: Pixels
Number of Pixels in Spectrum: 2048
>>>>>Begin Spectral Data<<<<<
0	-21,71
1	-21,71
2	-21,71
3	-58,34
4	-70,04
5	-85,37
6	-85,37
7	-61,61
8	-56,58
9	-57,17
10	-26,16
11	-29,08
12	-18,2
13	-5,44
14	16,91
15	30,37
16	45,58
17	57,75
18	66,76
19	91,81
20	115,8
21	123,99
22	141,78
23	199,47
24	325,51
25	353,36
26	348,1
27	368,46
28	376,07
29	382,5
30	392,33
31	404,62
32	400,88
33	406,96
34	413,75
35	432,94
36	416,09
37	438,09
38	428,84
39	423,81
40	432,47
41	430,37
42	444,76
43	452,6
44	439,26
45	427,79
46	454,82
47	436,8
48	430,48
49	439,49
50	425,8
51	442,65
52	425,57
53	429,55
54	425,22
55	424,05
56	424,4
57	415,5
58	429,78
59	408,25
60	421,94
61	424,63
62	426,04
63	421
64	417,26
65	418,31
66	416,67
67	421,24
68	410,71
69	414,45
70	408,83
71	407,19
72	403,33
73	409,89
74	406,73
75	411,29
76	395,49
77	399,47
78	401,46
79	416,79
80	406,26
81	392,8
82	406,49
83	407,08
84	409,89
85	418,31
86	404,62
87	412,93
88	407,66
89	419,01
90	411,64
91	414,45
92	408,72
93	411,99
94	412,81
95	403,45
96	423,46
97	410,59
98	430,83
99	420,18
100	414,57
101	415,04
102	420,42
103	419,25
104	419,95
105	405,56
106	434,46
107	425,45
108	424,98
109	423,46
110	423,34
111	434,11
112	427,79
113	410,35
114	413,4
115	419,6
116	424,87
117	434,34
118	414,1
119	412,58
120	424,63
121	414,8
122	430,25
123	415,85
124	429,78
125	428,61
126	434,7
127	433,64
128	429,31
129	421,47
130	432,82
131	414,57
132	426,5
133	414,1
134	410,47
135	412,34
136	439,73
137	421,35
138	428,61
139	419,83
140	442,54
141	423,11
142	440,9
143	437,74
144	432,47
145	438,09
146	404,27
147	422,76
148	419,37
149	421,71
150	423,46
151	432,47
152	444,41
153	430,95
154	431,77
155	430,72
156	429,2
157	417,96
158	411,64
159	439,96
160	430,6
161	424,4
162	431,77
163	439,96
164	449,91
165	430,6
166	436,1
167	437,97
168	432,12
169	432,47
170	430,25
171	424,75
172	441,02
173	440,08
174	432,59
175	432,12
176	445,93
177	432
178	452,13
179	430,72
180	445,81
181	442,42
182	433,99
183	435,28
184	433,99
185	437,74
186	446,16
187	435,16
188	429,9
189	439,14
190	443,24
191	451,66
192	450,14
193	441,37
194	444,18
195	440,78
196	443,47
197	444,53
198	439,85
199	456,58
200	442,54
201	442,19
202	455,29
203	457,98
204	458,8
205	441,95
206	458,8
207	438,67
208	438,79
209	464,89
210	454,01
211	447,33
212	462,9
213	470,04
214	476,12
215	458,1
216	469,34
217	459,97
218	465,83
219	474,84
220	472,61
221	483,85
222	494,5
223	482,68
224	459,62
225	484,32
226	485,49
227	485,95
228	480,92
229	489,46
230	495,67
231	484,08
232	484,43
233	494,26
234	504,56
235	500,35
236	513,1
237	513,69
238	498,12
239	524,81
240	506,08
241	503,16
242	523,17
243	527,62
244	558,04
245	565,53
246	581,8
247	602,16
248	634,34
249	678,46
250	720,12
251	798,42
252	852,36
253	932,64
254	1023,46
255	1138,5
256	1237,85
257	1362,48
258	1547,04
259	1765,06
260	1995,95
261	2157,8
262	2314,03
263	2530,29
264	2667,57
265	2963,64
266	3514,96
267	4102,55
268	4649,65
269	4954,86
270	5403,89
271	5739,99
272	6182,12
273	6584,22
274	6988,43
275	7327,34
276	7622,36
277	7754,14
278	7784,21
279	8247,99
280	8958,58
281	9759,74
282	10238,61
283	10776
284	11219,07
285	11908,24
286	12518,65
287	13307,06
288	14363,22
289	15027,47
290	15892,65
291	15840,34
292	15877,32
293	15400,43
294	15347,07
295	16176,67
296	17871,69
297	18745,88
298	19755,7
299	21019,12
300	22097,76
301	23730,75
302	24293,88
303	24377,79
304	23594,06
305	23629,17
306	23521,51
307	24294
308	25604,93
309	26151,57
310	26017,92
311	24953,91
312	24383,99
313	24435,95
314	24484,64
315	24480,42
316	24282,77
317	24105,24
318	24203,42
319	24377,56
320	24717,4
321	24809,39
322	24175,92
323	23279,14
324	22100,68
325	22073,53
326	22398,28
327	22941,52
328	23772,76
329	24627,99
330	25083,93
331	26043,43
332	26430,68
333	25644,96
334	25592,41
335	25381,3
336	25726,52
337	26481,82
338	26055,96
339	25319,74
340	23953,22
341	23011,97
342	22975,11
343	23776,86
344	24428,35
345	24425,42
346	24729,46
347	24766,32
348	24670,12
349	24479,37
350	24468,96
351	24267,08
352	24577,2
353	25128,64
354	26379,77
355	27067,42
356	27143,95
357	26923,59
358	26268,24
359	26041,8
360	26274,09
361	27282,75
362	28546,99
363	29559,04
364	29657,57
365	29829,13
366	29061,44
367	27976,36
368	26428,22
369	24797,57
370	23559,07
371	22469,08
372	21611,51
373	22097,52
374	23999,91
375	26398,61
376	27482,51
377	27282,4
378	26349,69
379	25892,12
380	26483,57
381	27286,49
382	28285,2
383	28439,79
384	29203,74
385	29657,69
386	29854,64
387	30552,48
388	32265,75
389	34065,85
390	35215,17
391	35247,47
392	34926,47
393	34348,24
394	33790,96
395	33569,78
396	33926,24
397	35310,08
398	35466,08
399	34808,86
400	34536,3
401	34525,07
402	34042,45
403	32594,01
404	31225,26
405	30091,86
406	29007,37
407	27999,65
408	27677,83
409	28133,65
410	29535,75
411	30885,88
412	31503,55
413	32503,9
414	34277,44
415	36386,26
416	38084,79
417	37840,55
418	36396,56
419	34584,17
420	33997,74
421	34330,33
422	34805,23
423	33714,66
424	31875
425	29100,29
426	26473,74
427	24248,24
428	22825,66
429	23391,02
430	24985,28
431	27088,25
432	28424,23
433	28550,26
434	28715,86
435	29184,55
436	29235,81
437	29095,14
438	29218,96
439	28965,24
440	29366,29
441	30841,88
442	32626,78
443	33788,73
444	35108,21
445	36245,95
446	37065,37
447	35484,8
448	32836,6
449	28086,37
450	24412,9
451	22123,27
452	23620,51
453	27166,89
454	30128,72
455	32443,28
456	31780,09
457	28691,4
458	25777,78
459	25531,44
460	28710,94
461	33392,95
462	37451,09
463	40381,32
464	42294,71
465	44129,92
466	45424,71
467	47068,7
468	46429,62
469	47973,78
470	48239,55
471	47881,8
472	47266,24
473	47064,49
474	47211,12
475	47252,55
476	46127,22
477	46077,13
478	45801,3
479	45286,38
480	44486,74
481	44186,21
482	43815
483	44904,41
484	45071,29
485	46509,78
486	47082,27
487	44842,03
488	43729,93
489	44155,9
490	45069,06
491	46509,08
492	47073,03
493	47402,34
494	46965,01
495	46555,07
496	46325,23
497	47041,2
498	47025,99
499	45571,69
500	47047,28
501	46151,33
502	46492,69
503	46632,07
504	45486,15
505	44684,98
506	44728,28
507	44628,34
508	44756,95
509	43565,27
510	44130,63
511	44561,28
512	44742,68
513	46009,84
514	45725,82
515	45308,38
516	43031,04
517	43578,26
518	43535,66
519	43155,68
520	43820,97
521	44068,25
522	43310,74
523	43156,96
524	43202,37
525	43204,01
526	41646,85
527	41442,4
528	40169,27
529	41024,27
530	40652,47
531	38719,54
532	37319,55
533	35176,2
534	32646,2
535	32649,13
536	33662,93
537	36667,83
538	39138,96
539	39602,74
540	40788,57
541	40787,29
542	39748,91
543	39348,56
544	41207,88
545	41793,6
546	42156,03
547	43028
548	43558,13
549	43678,55
550	43139,88
551	42068,15
552	41689,45
553	40917,77
554	40980,62
555	42026,37
556	41665,69
557	42091,9
558	43321,85
559	43693,53
560	44756,25
561	45608,21
562	46005,86
563	44939,4
564	44772,05
565	47088,48
566	46265,66
567	46352,26
568	45669,53
569	44825,88
570	45182,7
571	45729,68
572	45914,82
573	45043,9
574	47168,06
575	47869,87
576	46143,37
577	47036,52
578	47667,06
579	48035,58
580	48880,74
581	49438,26
582	48920,18
583	47957,05
584	47792,51
585	46600,94
586	47335,64
587	46873,15
588	46093,28
589	46425,17
590	46463,32
591	47108,37
592	46494,57
593	47191,34
594	47520,77
595	47772,97
596	47512,11
597	46893,86
598	46164,9
599	45531,67
600	46677,71
601	45331,91
602	46668,59
603	46951,32
604	47381,04
605	47553,78
606	48389,35
607	48077,24
608	48832,76
609	48016,38
610	47923,23
611	47718,9
612	47671,39
613	47609,6
614	47340,08
615	47084,97
616	47642,6
617	46818,5
618	47355,06
619	46907,79
620	46698,08
621	47886,6
622	48732,94
623	48565,71
624	48097,72
625	47713,99
626	48789,46
627	48137,86
628	49531,18
629	50215,67
630	51251,12
631	50828,89
632	50700,28
633	51446,91
634	51738,77
635	52704,94
636	53537,36
637	53784,28
638	53659,18
639	53352,69
640	54405,34
641	54482,46
642	55796,21
643	55742,96
644	55823,47
645	56292,87
646	57047,34
647	57351,49
648	57654,01
649	57998,88
650	58206,61
651	58468,4
652	58930,89
653	58919,65
654	59160,02
655	59158,85
656	58947,97
657	58812,57
658	58807,54
659	58654,94
660	57177,24
661	55732,66
662	54817,86
663	55167,07
664	55834,01
665	56729,03
666	57416,09
667	57651,9
668	58105,73
669	58526,91
670	59333,93
671	59559,55
672	59727,37
673	59476
674	59196,89
675	58599
676	58835,28
677	59079,86
678	59020,88
679	59355,23
680	59382,73
681	59966,22
682	59958,03
683	59911,34
684	59910,05
685	59784,95
686	60047,67
687	60064,17
688	59894,13
689	59399,58
690	58993,26
691	59076,12
692	59323,86
693	58951,48
694	58571,96
695	58041,37
696	57878,35
697	57565,07
698	57311,7
699	57557,34
700	57871,09
701	57920,01
702	57813,87
703	57663,84
704	57764,36
705	58071,68
706	58598,41
707	58778,52
708	58801,92
709	58812,22
710	58573,95
711	58343,06
712	57949,5
713	57850,85
714	58116,61
715	58297,07
716	58243,12
717	57891,92
718	57978,64
719	58225,33
720	57998,18
721	58455,29
722	58044,53
723	57689,11
724	57344,59
725	57128,67
726	56661,62
727	56458,81
728	56446,52
729	56548,34
730	56591,4
731	55584,62
732	54066,2
733	52640,93
734	52559,36
735	52644,44
736	52279,08
737	52734,2
738	53130,69
739	54254,38
740	54345,31
741	54878,6
742	55119,44
743	55374,44
744	55488,19
745	55335,59
746	54810,84
747	54436,71
748	54821,26
749	55002,53
750	55275,91
751	55348,58
752	55062,92
753	54996,21
754	53930,21
755	52606,29
756	51472,77
757	51335,15
758	51888,33
759	52564,28
760	53057,78
761	53293,47
762	53610,38
763	53514,77
764	53586,62
765	53852,51
766	54066,32
767	53695,58
768	53082,71
769	52085,99
770	51629,58
771	51563
772	51544,16
773	51351,65
774	51711,85
775	51988,97
776	52026,66
777	52539,23
778	51741,58
779	51347,32
780	50824,67
781	51036,49
782	51166,04
783	50833,33
784	50612,39
785	50371,55
786	49371,9
787	48985,01
788	48409,94
789	48280,75
790	48652,31
791	48774,48
792	48426,68
793	48533,41
794	48375,89
795	49112,34
796	48737,27
797	48858,39
798	48719,71
799	48602,69
800	48558,22
801	48372,5
802	48114,1
803	47981,63
804	47677,82
805	47220,37
806	47429,38
807	47308,72
808	47661,79
809	47324,52
810	47172,85
811	47106,15
812	46752,84
813	46787,95
814	46790,76
815	46784,09
816	46509,78
817	46371,57
818	46093,87
819	46162,33
820	46229,03
821	46332,13
822	46214,99
823	46029,62
824	45849,63
825	45145,36
826	44809,85
827	44332,26
828	44182
829	44013,83
830	43386,1
831	42745,96
832	42512,5
833	42356,03
834	42710,74
835	42574,05
836	42766,68
837	42706,76
838	42157,44
839	42182,13
840	42221,22
841	42025,9
842	41844,86
843	41973,59
844	41591,14
845	41451,65
846	41270,37
847	40827,19
848	40511,81
849	40448,26
850	40604,14
851	40784,13
852	40701,39
853	40457,97
854	40215,73
855	40257,51
856	40155,58
857	40328,19
858	39683,26
859	39568,69
860	39198,88
861	39700,81
862	40007,89
863	40333,34
864	40171,84
865	40141,18
866	40094,96
867	39664,42
868	39325,86
869	38769,86
870	38350,56
871	37728,21
872	37743,07
873	37444,07
874	37193,39
875	36729,03
876	36300,48
877	35831,44
878	35461,28
879	35325,88
880	35377,61
881	35557,83
882	35315
883	35195,4
884	35221,26
885	35189,54
886	35230,62
887	35214
888	35169,07
889	35000,2
890	34949,99
891	34787,09
892	34549,29
893	33987,21
894	33588,15
895	33137,6
896	33347,78
897	33311,38
898	33231,69
899	32993,89
900	32707,99
901	31543,93
902	30480,62
903	29880,16
904	29803,62
905	30319,48
906	30789,1
907	31285,77
908	31337,84
909	31558,91
910	31405,25
911	31574,94
912	31807,7
913	31761,13
914	31844,1
915	31821,87
916	31784,18
917	31918,76
918	32098,4
919	32319,46
920	32475,23
921	32399,16
922	32605,13
923	32472,42
924	32491,61
925	32278,62
926	32411,91
927	32369,08
928	32098,52
929	32193,54
930	32199,98
931	31715,72
932	31435,21
933	31438,84
934	31152,12
935	31064,94
936	31208,53
937	30991,44
938	31107,77
939	31029,48
940	30562,89
941	30292,21
942	30024,57
943	29687,18
944	29408,3
945	29263,78
946	28963,02
947	28712,58
948	28156,12
949	27830,32
950	27956
951	27287,66
952	26943,49
953	27012,53
954	26536,82
955	26580,82
956	26170,29
957	26023,77
958	25882,4
959	25609,62
960	25275,27
961	24976,38
962	24849,06
963	24691,89
964	24611,61
965	24335,9
966	24094,82
967	23519,05
968	23482,42
969	23432,21
970	23464,51
971	23497,05
972	23596,52
973	23276,57
974	23283,47
975	23266,86
976	23241,81
977	23056,09
978	23028,71
979	22794,3
980	22553,23
981	22470,49
982	22273,06
983	22013,03
984	21722,92
985	21533,1
986	21383,08
987	21157,92
988	20969,15
989	20723,4
990	20630,36
991	20803,68
992	20670,27
993	20415,73
994	19999
995	19826,5
996	19622,29
997	19719,66
998	19623,46
999	19446,52
1000	19281,51
1001	19144,24
1002	19250,38
1003	19141,66
1004	19045,7
1005	19091,57
1006	19142,83
1007	19127,5
1008	19109,25
1009	18986,95
1010	18976,54
1011	19091,46
1012	18986,25
1013	18982,97
1014	18816,09
1015	18673,55
1016	18796,43
1017	18668,41
1018	18816,09
1019	18803,81
1020	18692,16
1021	18656,7
1022	18648,04
1023	18331,02
1024	18193,04
1025	18153,84
1026	18025,93
1027	17845,12
1028	17881,52
1029	17786,84
1030	17801,59
1031	17896,03
1032	17613,99
1033	17646,06
1034	17532,54
1035	17490,76
1036	17338,4
1037	17339,22
1038	17110,31
1039	17057,41
1040	16990,24
1041	16856,01
1042	16626,64
1043	16691,35
1044	16537,93
1045	16425,7
1046	16171,76
1047	16044,31
1048	16046,89
1049	16169,53
1050	16239,98
1051	16139,34
1052	16098,73
1053	15944,72
1054	16012,01
1055	15930,33
1056	15937,23
1057	15986,74
1058	15795,28
1059	15577,49
1060	15447,71
1061	14875,92
1062	14190,49
1063	13620,22
1064	13412,85
1065	13716,53
1066	14014,48
1067	14367,09
1068	14553,74
1069	14789,44
1070	14713,02
1071	14656,84
1072	14771,18
1073	14796,69
1074	14786,28
1075	14880,13
1076	14773,29
1077	14822,55
1078	14670,07
1079	14639,88
1080	14572,7
1081	14451,23
1082	14387,57
1083	14373,29
1084	14268,67
1085	14244,79
1086	14232,39
1087	14020,34
1088	14099,09
1089	13885,29
1090	13851,35
1091	13684,23
1092	13677,92
1093	13632,63
1094	13503,55
1095	13486,11
1096	13363,35
1097	13301,67
1098	13167,68
1099	13194,83
1100	12867,04
1101	12921,92
1102	12804,31
1103	12692,08
1104	12747,08
1105	12632,63
1106	12593,31
1107	12490,8
1108	12347,55
1109	12316,66
1110	12216,37
1111	12251,36
1112	12118,88
1113	12062,59
1114	12029,48
1115	11934,8
1116	11893,72
1117	11822,69
1118	11582,08
1119	11667,28
1120	11690,92
1121	11525,79
1122	11424,68
1123	11334,1
1124	11239,43
1125	11234,51
1126	11196,01
1127	11091,51
1128	11028,66
1129	10893,15
1130	10820,12
1131	10687,41
1132	10607,72
1133	10549,09
1134	10451,95
1135	10246,46
1136	9714,92
1137	8858,17
1138	8166,07
1139	7858,99
1140	7893,28
1141	7893,16
1142	7861,22
1143	7897,38
1144	8037,11
1145	8062,62
1146	8126,28
1147	8328,74
1148	8506,5
1149	8576,95
1150	8651,97
1151	8715,75
1152	8779,29
1153	8755,77
1154	8726,16
1155	8711,3
1156	8668
1157	8673,5
1158	8647,4
1159	8683,8
1160	8765,72
1161	8711,88
1162	8809,02
1163	8660,51
1164	8780,23
1165	8707,9
1166	8675,25
1167	8647,99
1168	8464,14
1169	8425,52
1170	8279,12
1171	8384,21
1172	8313,88
1173	8184,68
1174	8126,52
1175	8086,02
1176	8107,79
1177	8118,32
1178	8153,78
1179	8227,98
1180	8184,91
1181	8213,12
1182	8128,27
1183	8196,97
1184	8118,21
1185	8139,39
1186	8037,69
1187	8150,04
1188	8053,14
1189	8038,63
1190	8021,89
1191	8023,18
1192	7968,18
1193	7836,06
1194	7986,9
1195	7962,44
1196	7846
1197	7826,69
1198	7848,46
1199	7761,98
1200	7712,47
1201	7809,61
1202	7624
1203	7664,73
1204	7594,16
1205	7522,42
1206	7434,65
1207	7425,06
1208	7386,44
1209	7248
1210	7030,44
1211	6743,14
1212	6618,51
1213	6339,63
1214	6117,05
1215	5918,1
1216	5814,18
1217	5705,7
1218	5628,93
1219	5671,29
1220	5745,37
1221	5919,04
1222	6138,58
1223	6274,8
1224	6350,52
1225	6353,91
1226	6293,17
1227	6123,84
1228	6054,09
1229	5913,07
1230	5886,74
1231	5798,85
1232	5791,95
1233	5783,17
1234	5834,9
1235	5860,64
1236	5834,55
1237	5816,17
1238	5773,93
1239	5788,55
1240	5739,17
1241	5737,3
1242	5710,15
1243	5756,49
1244	5775,68
1245	5792,42
1246	5834,9
1247	5830,57
1248	5937,41
1249	5952,86
1250	6026,7
1251	6091,07
1252	6134,13
1253	6247,3
1254	6245,9
1255	6221,79
1256	6196,86
1257	6159,76
1258	6193,23
1259	6134,84
1260	6150,87
1261	6141,98
1262	6112,13
1263	6077,14
1264	6043,56
1265	6036,53
1266	5978,72
1267	6052,1
1268	6019,45
1269	5901,84
1270	5927,58
1271	5924,42
1272	5912,49
1273	5933,67
1274	5876,56
1275	5884,75
1276	5927,11
1277	5887,33
1278	5871,18
1279	5847,18
1280	5791,25
1281	5802,01
1282	5838,99
1283	5811,61
1284	5715,88
1285	5657,6
1286	5731,45
1287	5723,37
1288	5594,29
1289	5603,42
1290	5560
1291	5496,22
1292	5527,47
1293	5503,59
1294	5502,07
1295	5469,89
1296	5457,13
1297	5448,01
1298	5477,38
1299	5455,85
1300	5423,31
1301	5381,3
1302	5466,03
1303	5533,67
1304	5483,47
1305	5425,42
1306	5448,12
1307	5453,97
1308	5340,58
1309	5345,14
1310	5329,81
1311	5293,18
1312	5235,37
1313	5242,86
1314	5122,91
1315	4938,82
1316	4403,54
1317	3695,3
1318	2865,23
1319	2223,57
1320	1806,25
1321	1697,77
1322	1735,21
1323	1865,35
1324	1869,33
1325	1802,62
1326	1821,11
1327	1842,65
1328	1903,73
1329	2010,58
1330	2144,34
1331	2348,32
1332	2536,38
1333	2737,67
1334	2903,49
1335	3113,32
1336	3330,99
1337	3447,43
1338	3591,38
1339	3710,16
1340	3749,25
1341	3821,45
1342	3819,58
1343	3875,52
1344	3895,76
1345	3878,91
1346	3858,9
1347	3836,9
1348	3820,05
1349	3826,6
1350	3820,75
1351	3807,76
1352	3764,11
1353	3726,78
1354	3699,86
1355	3678,44
1356	3667,21
1357	3668,61
1358	3620,4
1359	3673,06
1360	3581,9
1361	3628,36
1362	3563,17
1363	3528,18
1364	3524,55
1365	3488,98
1366	3456,68
1367	3453,64
1368	3403,2
1369	3384,59
1370	3424,61
1371	3365,28
1372	3381,66
1373	3367,5
1374	3325,96
1375	3302,91
1376	3260,66
1377	3225,08
1378	3216,31
1379	3198,52
1380	3193,72
1381	3151,82
1382	3192,67
1383	3158,61
1384	3161,3
1385	3143,52
1386	3130,88
1387	3128,65
1388	3042,64
1389	3080,2
1390	2990,91
1391	2974,18
1392	2973,01
1393	2922,22
1394	2931,93
1395	2890,62
1396	2876,34
1397	2847,67
1398	2851,65
1399	2794,19
1400	2778,74
1401	2808,35
1402	2791,15
1403	2722,69
1404	2747,61
1405	2730,06
1406	2741,65
1407	2679,5
1408	2694,83
1409	2655,75
1410	2633,16
1411	2646,15
1412	2673,07
1413	2638,9
1414	2596,88
1415	2621,81
1416	2568,45
1417	2602,27
1418	2551,01
1419	2548,43
1420	2515,55
1421	2483,13
1422	2470,38
1423	2477,98
1424	2451,07
1425	2432,23
1426	2476,23
1427	2414,32
1428	2441,24
1429	2419,7
1430	2420,29
1431	2399,11
1432	2403,55
1433	2385,53
1434	2393,72
1435	2369,5
1436	2371,37
1437	2361,66
1438	2348,32
1439	2321,87
1440	2326,9
1441	2293,9
1442	2281,26
1443	2251,89
1444	2239,13
1445	2232,11
1446	2219,12
1447	2211,16
1448	2167,51
1449	2153,82
1450	2138,72
1451	2128,66
1452	2076,46
1453	2041,71
1454	1992,32
1455	1953,59
1456	1942,7
1457	1881,97
1458	1859,97
1459	1797,59
1460	1809,88
1461	1768,68
1462	1750,43
1463	1730,07
1464	1715,55
1465	1694,49
1466	1728,78
1467	1711,69
1468	1712,63
1469	1723,75
1470	1713,8
1471	1748,91
1472	1807,3
1473	1830,12
1474	1812,45
1475	1766,58
1476	1736,62
1477	1651,07
1478	1592,09
1479	1588,46
1480	1615,73
1481	1678,46
1482	1705,84
1483	1752,89
1484	1760,26
1485	1718,48
1486	1724,8
1487	1749,14
1488	1738,26
1489	1716,72
1490	1670,15
1491	1645,57
1492	1642,18
1493	1648,26
1494	1653,41
1495	1636,09
1496	1622,17
1497	1653,65
1498	1638,32
1499	1634,81
1500	1663,13
1501	1622,52
1502	1624,39
1503	1621,58
1504	1617,72
1505	1611,05
1506	1596,42
1507	1637,5
1508	1617,6
1509	1628,95
1510	1640,89
1511	1636,21
1512	1628,02
1513	1633,75
1514	1615,85
1515	1612,57
1516	1599,7
1517	1597,24
1518	1598,06
1519	1600,28
1520	1590,57
1521	1593,96
1522	1586,12
1523	1581,68
1524	1574,65
1525	1586,36
1526	1558,74
1527	1564,71
1528	1562,25
1529	1538,84
1530	1535,92
1531	1545,75
1532	1524,33
1533	1525,27
1534	1514,15
1535	1543,29
1536	1527,96
1537	1498,94
1538	1521,99
1539	1496,71
1540	1486,3
1541	1483,37
1542	1472,61
1543	1477,99
1544	1444,52
1545	1420,53
1546	1396,31
1547	1386,59
1548	1353,82
1549	1369,15
1550	1355,23
1551	1368,1
1552	1366,23
1553	1357,22
1554	1349,14
1555	1348,32
1556	1321,29
1557	1278,69
1558	1209,53
1559	1201,69
1560	1199,82
1561	1226,85
1562	1246,39
1563	1272,61
1564	1266,05
1565	1257,04
1566	1252,71
1567	1250,96
1568	1237,97
1569	1276,24
1570	1256,22
1571	1248,5
1572	1261,84
1573	1242,88
1574	1235,98
1575	1212,1
1576	1202,39
1577	1205,32
1578	1209,3
1579	1181,33
1580	1200,29
1581	1187,18
1582	1178,28
1583	1199,58
1584	1162,13
1585	1157,22
1586	1171,38
1587	1149,38
1588	1101,75
1589	1088,29
1590	1066,76
1591	1052,01
1592	1048,03
1593	1055,64
1594	1053,42
1595	1082,09
1596	1055,99
1597	1052,95
1598	1066,64
1599	1060,32
1600	1052,36
1601	1054,7
1602	1051,54
1603	1034,69
1604	1031,3
1605	1043,24
1606	1027,32
1607	1014,68
1608	1014,56
1609	1007,78
1610	1001,81
1611	996,42
1612	983,55
1613	982,26
1614	952,42
1615	966,82
1616	962,49
1617	970,56
1618	940,13
1619	949,15
1620	940,95
1621	913,92
1622	945,05
1623	932,29
1624	930,3
1625	922,35
1626	904,21
1627	896,37
1628	901,75
1629	909,82
1630	913,92
1631	912,98
1632	928,78
1633	935,22
1634	920,94
1635	921,64
1636	930,66
1637	937,33
1638	915,56
1639	947,39
1640	945,4
1641	949,15
1642	959,8
1643	958,98
1644	935,69
1645	960,15
1646	966,93
1647	970,44
1648	973,02
1649	982,38
1650	988,7
1651	983,32
1652	991,04
1653	969,74
1654	989,87
1655	1000,4
1656	1008,83
1657	998,18
1658	988,12
1659	981,68
1660	954,53
1661	958,16
1662	942,48
1663	948,79
1664	939,08
1665	923,63
1666	898,01
1667	881,62
1668	878,93
1669	844,17
1670	829,08
1671	826,5
1672	803,33
1673	789,05
1674	788,58
1675	779,22
1676	716,26
1677	713,69
1678	724,22
1679	711,46
1680	716,85
1681	697,77
1682	702,57
1683	694,03
1684	685,02
1685	672,14
1686	675,19
1687	676,12
1688	687,47
1689	700,7
1690	716,96
1691	687,71
1692	715,68
1693	713,69
1694	691,57
1695	684,43
1696	681,86
1697	676,24
1698	667,81
1699	643,47
1700	620,77
1701	630,48
1702	617,14
1703	617,02
1704	605,79
1705	603,8
1706	617,14
1707	613,51
1708	613,63
1709	590,11
1710	608,48
1711	595,26
1712	597,95
1713	617,26
1714	592,21
1715	578,64
1716	577,12
1717	582,27
1718	591,75
1719	575,71
1720	569,04
1721	580,04
1722	579,11
1723	567,76
1724	552,31
1725	567,87
1726	574,07
1727	550,32
1728	546,92
1729	562,49
1730	559,91
1731	562,37
1732	574,78
1733	570,56
1734	571,97
1735	570,1
1736	560,15
1737	558,16
1738	552,54
1739	564,95
1740	550,08
1741	553,13
1742	551,14
1743	549,38
1744	542,24
1745	535,46
1746	545,99
1747	531,59
1748	523,87
1749	532,18
1750	521,65
1751	514,39
1752	527,85
1753	515,91
1754	497,31
1755	507,6
1756	518,72
1757	502,34
1758	492,39
1759	479,4
1760	480,57
1761	468,75
1762	479,05
1763	451,43
1764	453,89
1765	437,04
1766	420,3
1767	423,7
1768	416,56
1769	416,56
1770	393,85
1771	391,63
1772	395,26
1773	391,98
1774	386,83
1775	371,38
1776	386,01
1777	397,83
1778	376,88
1779	383,32
1780	381,57
1781	369,16
1782	380,63
1783	380,63
1784	387,07
1785	383,79
1786	393,62
1787	398,3
1788	395,61
1789	382,5
1790	392,45
1791	385,08
1792	383,56
1793	375,13
1794	386,95
1795	367,99
1796	378,64
1797	373,14
1798	360,38
1799	387,42
1800	369,98
1801	373,02
1802	358,04
1803	374,08
1804	376,07
1805	376,88
1806	375,13
1807	371,85
1808	380,28
1809	349,73
1810	366,7
1811	367,41
1812	375,71
1813	369,4
1814	361,79
1815	378,06
1816	364,48
1817	372,55
1818	388,59
1819	386,25
1820	373,49
1821	374,43
1822	385,19
1823	385,31
1824	369,04
1825	379,11
1826	382,5
1827	378,64
1828	375,6
1829	376,18
1830	362,72
1831	376,53
1832	383,91
1833	364,71
1834	363,54
1835	393,39
1836	383,2
1837	378,06
1838	383,67
1839	371,97
1840	374,78
1841	375,01
1842	368,93
1843	375,36
1844	378,17
1845	385,66
1846	374,31
1847	395,61
1848	379,23
1849	382,74
1850	402,86
1851	386,72
1852	371,97
1853	391,4
1854	370,8
1855	384,96
1856	390,81
1857	381,68
1858	391,16
1859	403,33
1860	388,24
1861	386,48
1862	388,12
1863	393,03
1864	398,18
1865	390,11
1866	395,73
1867	381,68
1868	400,17
1869	403,68
1870	380,75
1871	393,74
1872	398,42
1873	385,54
1874	398,42
1875	397,25
1876	397,72
1877	386,13
1878	383,32
1879	376,77
1880	394,32
1881	392,92
1882	394,91
1883	368,46
1884	379,23
1885	373,96
1886	387,18
1887	388,7
1888	371,15
1889	388,7
1890	387,89
1891	385,78
1892	363,31
1893	382,85
1894	364,6
1895	373,96
1896	381,1
1897	382,27
1898	380,16
1899	381,92
1900	370,92
1901	370,21
1902	372,67
1903	377,12
1904	365,3
1905	375,6
1906	386,36
1907	364,6
1908	381,57
1909	379,58
1910	375,95
1911	374,43
1912	369,04
1913	386,83
1914	385,9
1915	358,04
1916	379,11
1917	370,68
1918	379,81
1919	366
1920	363,19
1921	365,53
1922	367,41
1923	378,41
1924	360,15
1925	377,94
1926	363,08
1927	363,19
1928	376,3
1929	379,46
1930	370,21
1931	370,33
1932	366
1933	369,98
1934	365,65
1935	369,28
1936	368,46
1937	354,65
1938	352,78
1939	370,57
1940	353,95
1941	363,78
1942	361,67
1943	361,67
1944	354,65
1945	358,86
1946	355,12
1947	364,95
1948	358,98
1949	359,1
1950	368,22
1951	348,1
1952	366,82
1953	361,55
1954	352,43
1955	369,16
1956	355,59
1957	360,5
1958	374,66
1959	351,84
1960	363,89
1961	353,01
1962	371,03
1963	351,14
1964	366,82
1965	338,73
1966	354,65
1967	349,5
1968	353,95
1969	354,65
1970	357,81
1971	353,95
1972	359,8
1973	364,13
1974	355,12
1975	357,58
1976	349,85
1977	350,44
1978	352,66
1979	342,6
1980	369,51
1981	344,82
1982	366,94
1983	349,38
1984	353,71
1985	346,57
1986	340,14
1987	360,27
1988	360,03
1989	340,14
1990	356,99
1991	345,99
1992	344,7
1993	341,07
1994	331,24
1995	348,33
1996	361,44
1997	351,72
1998	340,84
1999	338,73
2000	356,05
2001	360,97
2002	338,15
2003	348,68
2004	351,14
2005	350,67
2006	340,61
2007	333,12
2008	353,83
2009	349,27
2010	343,53
2011	334,52
2012	343,88
2013	349,73
2014	362,72
2015	339,2
2016	333,35
2017	338,15
2018	332,41
2019	330,89
2020	340,37
2021	341,78
2022	336,98
2023	344,35
2024	332,77
2025	350,32
2026	361,67
2027	337,91
2028	344,7
2029	343,42
2030	343,77
2031	341,78
2032	325,98
2033	351,49
2034	345,29
2035	329,02
2036	341,19
2037	344,35
2038	338,5
2039	343,65
2040	334,05
2041	347,75
2042	336,74
2043	339,2
2044	332,65
2045	338,73
2046	338,73
2047	338,73
