Data from FLMS055071_15-32-12-255.txt Node
Date: Wed Apr 21 15:32:12 CEST 2021
User: au643642
Spectrometer: FLMS05507
Trigger mode: 0
Integration Time (sec): 2,100000E-2
Scans to average: 20
Electric dark correction enabled: true
Nonlinearity correction enabled: false
Boxcar width: 0
XAxis mode: Pixels
Number of Pixels in Spectrum: 2048
>>>>>Begin Spectral Data<<<<<
0	-16,22
1	-16,22
2	-16,22
3	-72,28
4	-85,03
5	-87,14
6	-67,6
7	-74,97
8	-67,48
9	-45,48
10	-42,55
11	-30,85
12	-19,5
13	-5,81
14	11,51
15	36,32
16	46,62
17	66,87
18	62,3
19	96,94
20	120,82
21	134,74
22	140,83
23	190,1
24	281,61
25	309,7
26	314,38
27	318,59
28	329,94
29	334,62
30	347,73
31	365,64
32	362,59
33	373,36
34	374,88
35	391,5
36	386,12
37	387,87
38	394,07
39	397,47
40	394,78
41	399,22
42	399,81
43	405,42
44	393,72
45	417,01
46	394,42
47	409,87
48	398,05
49	394,07
50	406,36
51	394,66
52	396,06
53	399,11
54	384,83
55	390,91
56	392,32
57	381,55
58	379,68
59	393,25
60	374,88
61	384,13
62	377,81
63	380,73
64	379,8
65	360,25
66	377,1
67	382,96
68	370,2
69	373,94
70	367,16
71	373,59
72	372,54
73	378,51
74	372,42
75	347,73
76	369,73
77	361,54
78	362,71
79	362,71
80	370,67
81	386,12
82	383,42
83	366,45
84	374,18
85	380,26
86	389,98
87	393,14
88	372,66
89	377,81
90	370,78
91	381,32
92	380,38
93	376,17
94	360,84
95	371,96
96	371,37
97	381,67
98	363,53
99	380,15
100	376,75
101	377,92
102	374,18
103	380,5
104	372,66
105	371,37
106	372,07
107	377,81
108	367,27
109	378,86
110	391,38
111	385,41
112	379,21
113	401,33
114	383,77
115	373,48
116	386,23
117	387,75
118	382,96
119	392,67
120	364,58
121	377,34
122	372,07
123	383,89
124	386,93
125	381,9
126	370,32
127	373,94
128	385,41
129	392,9
130	375,47
131	381,2
132	383,54
133	387,17
134	371,02
135	355,57
136	392,43
137	385,06
138	389,51
139	377,46
140	378,51
141	383,19
142	384,48
143	372,07
144	380,03
145	396,06
146	402,03
147	402,97
148	384,94
149	383,42
150	387,05
151	391,38
152	382,25
153	391,5
154	378,39
155	380,5
156	380,15
157	398,17
158	383,66
159	378,86
160	396,65
161	378,16
162	394,78
163	373,94
164	390,8
165	388,1
166	362,83
167	370,78
168	392,2
169	387,75
170	378,74
171	382,02
172	382,37
173	387,87
174	390,33
175	384,71
176	387,64
177	380,61
178	386,7
179	377,57
180	376,4
181	392,08
182	389,27
183	387,17
184	393,6
185	378,39
186	380,03
187	379,21
188	402,15
189	379,44
190	405,66
191	383,89
192	395,71
193	386,93
194	379,8
195	398,99
196	388,1
197	384,71
198	387,99
199	394,19
200	398,64
201	393,37
202	388,69
203	379,56
204	399,69
205	410,92
206	397,47
207	390,45
208	388,34
209	393,25
210	408,7
211	397,93
212	392,9
213	388,92
214	405,42
215	395,48
216	402,62
217	384,01
218	393,37
219	382,37
220	384,01
221	397,82
222	384,36
223	393,14
224	385,3
225	404,49
226	401,33
227	402,5
228	388,81
229	378,98
230	403,08
231	388,69
232	396,65
233	394,07
234	389,98
235	397,93
236	393,6
237	392,2
238	403,08
239	388,1
240	397,35
241	395,13
242	413,27
243	384,24
244	408,23
245	388,92
246	394,66
247	387,52
248	402,73
249	395,36
250	398,75
251	398,4
252	386,93
253	400,51
254	396,76
255	403,55
256	391,15
257	386,7
258	390,8
259	407,53
260	414,2
261	389,51
262	399,92
263	391,03
264	400,74
265	397,35
266	397,12
267	394,31
268	405,66
269	398,64
270	399,92
271	392,43
272	402,03
273	389,27
274	396,65
275	386,7
276	404,37
277	400,63
278	394,07
279	406,01
280	391,85
281	398,05
282	405,89
283	397,47
284	410,81
285	400,86
286	399,22
287	405,54
288	403,9
289	398,17
290	398,87
291	385,53
292	398,29
293	401,21
294	410,11
295	407,06
296	398,05
297	404,02
298	401,68
299	415,84
300	420,4
301	407,88
302	403,79
303	401,33
304	390,45
305	401,09
306	394,42
307	390,21
308	395,83
309	411,04
310	390,56
311	405,66
312	399,57
313	393,25
314	393,25
315	403,2
316	405,54
317	413,15
318	386,23
319	418,88
320	398,99
321	406,95
322	402,73
323	403,55
324	402,85
325	398,4
326	396,06
327	405,89
328	418,3
329	392,43
330	403,32
331	402,03
332	413,38
333	410,69
334	395,71
335	396,53
336	404,14
337	398,64
338	406,83
339	407,65
340	398,4
341	409,52
342	406,59
343	415,02
344	400,39
345	411,04
346	415,25
347	415,96
348	419,82
349	412,56
350	414,9
351	400,28
352	406,71
353	412,21
354	392,55
355	408,7
356	397,82
357	420,99
358	386,82
359	418,3
360	393,84
361	431,76
362	417,95
363	402,62
364	418,53
365	408,12
366	400,63
367	408,35
368	406,95
369	428,6
370	406,36
371	411,28
372	407,3
373	414,08
374	428,95
375	417,6
376	416,07
377	421,34
378	410,81
379	414,08
380	397,93
381	400,98
382	416,07
383	414,44
384	397
385	416,66
386	415,96
387	414,2
388	412,68
389	417,36
390	414,9
391	400,28
392	414,08
393	431,87
394	413,27
395	422,86
396	410,34
397	409,52
398	413,62
399	395,59
400	410,46
401	430,23
402	414,2
403	417,71
404	410,34
405	412,68
406	427,54
407	413,85
408	416,66
409	422,98
410	409,75
411	421,69
412	413,5
413	408,58
414	414,44
415	441
416	416,19
417	417,36
418	420,52
419	437,61
420	419,7
421	432,93
422	440,88
423	449,78
424	426,96
425	428,48
426	445,1
427	421,81
428	442,52
429	433,39
430	422,63
431	431,4
432	434,21
433	440,3
434	430,23
435	448,37
436	445,33
437	430
438	445,21
439	454,58
440	446,15
441	448,02
442	449,54
443	452,12
444	469,91
445	481,73
446	471,19
447	480,2
448	490,04
449	494,95
450	490,74
451	495,65
452	536,73
453	565,05
454	609,29
455	648,14
456	693,19
457	709,69
458	749,25
459	854,46
460	1006,47
461	1218,29
462	1504,89
463	1774,76
464	2026,95
465	2370,3
466	2739,64
467	3198,62
468	3553,21
469	4113,89
470	4632,43
471	5131,67
472	5575,32
473	6122,3
474	6745,23
475	7403,86
476	7870,33
477	8456,98
478	9141,71
479	9695,83
480	10173,53
481	10761,48
482	11351,29
483	12338,76
484	13107,16
485	14160,05
486	14975,84
487	14807,68
488	15072,63
489	15724,11
490	16752,78
491	17931,36
492	18714,38
493	19437,14
494	19692,96
495	19917,77
496	20451,29
497	21062,06
498	21657,96
499	21253,28
500	22374,75
501	22389,14
502	22837,47
503	23258,18
504	22920,79
505	22838,41
506	23095,16
507	23336,36
508	23704,4
509	23265,2
510	23731,55
511	24265,9
512	24732,95
513	25699,01
514	25763,14
515	25594,86
516	24499,84
517	24914,58
518	25055,13
519	25066,71
520	25653,84
521	25760,21
522	25476,07
523	25587,13
524	25729,55
525	25923,35
526	25005,63
527	24992,87
528	24429,15
529	25153,78
530	24860,4
531	23784,8
532	22893,29
533	21666,27
534	20125,49
535	20210,22
536	21087,92
537	23033,96
538	24764,78
539	25112,35
540	26009,13
541	25999,3
542	25439,79
543	25244,59
544	26591,92
545	26962,9
546	27454,64
547	28136,68
548	28598,82
549	28654,99
550	28360,9
551	27804,79
552	27484,14
553	27054,65
554	27232,76
555	28031,59
556	27886,36
557	28269,74
558	29210,28
559	29737,49
560	30367,56
561	31216,7
562	31517
563	30862,82
564	30857,32
565	32600,66
566	32102,48
567	32290,54
568	31916,99
569	31433,32
570	31826,88
571	32274,39
572	32647,83
573	32084,81
574	33793,17
575	34435,99
576	33203,47
577	33983,8
578	34613,76
579	34925,75
580	35947,98
581	36337,45
582	35946,11
583	35339,09
584	35331,72
585	34498,25
586	35274,26
587	34939,68
588	34426,52
589	34936,99
590	35056,7
591	35602,52
592	35272,03
593	35971,62
594	36248,74
595	36659,5
596	36523,75
597	36219,72
598	35688,53
599	35234,7
600	36226,39
601	35287,6
602	36597,25
603	36926,68
604	37211,75
605	37545,98
606	38435,03
607	38334,63
608	38988,8
609	38435,74
610	38495,77
611	38351,24
612	38368,56
613	38356,74
614	38243,93
615	38175,47
616	38837,61
617	38132,4
618	38725,49
619	38431,29
620	38285,36
621	39422,62
622	40270,13
623	40334,38
624	40146,78
625	39739,18
626	40825,19
627	40358,84
628	41633,26
629	42601,3
630	43606,56
631	43194,28
632	43284,27
633	44137,28
634	44436,17
635	45702,87
636	46675,48
637	46921,58
638	46818,72
639	46715,03
640	48107,3
641	48128,83
642	49910,8
643	49781,13
644	50041,87
645	50766,5
646	51737,94
647	52098,96
648	52755,84
649	53131,02
650	53347,87
651	54006,03
652	54554,77
653	54609,42
654	54990,35
655	55015,97
656	54803,8
657	54806,26
658	54943,42
659	54798,89
660	52830,15
661	51243,15
662	50275,8
663	50756,2
664	51760,64
665	52921,43
666	53723,3
667	54152,9
668	54777,47
669	55378,64
670	56319,65
671	56694,02
672	56937,67
673	56754,76
674	56472,14
675	55894,03
676	56158,62
677	56524,22
678	56474,36
679	56932,4
680	57002,04
681	57713,56
682	57806,95
683	57771,72
684	57892,14
685	57823,33
686	58184,01
687	58249,19
688	58023,91
689	57628,36
690	57224,15
691	57346,21
692	57704,55
693	57316,25
694	56910,99
695	56488,29
696	56386,71
697	56040,78
698	55957,45
699	56242,18
700	56743,99
701	56738,02
702	56686,88
703	56651,54
704	56850,02
705	57198,06
706	57859,14
707	58085,24
708	58046,5
709	58144,1
710	57920,7
711	57761,54
712	57424,85
713	57416,66
714	57767,98
715	57871,19
716	57965,52
717	57629,65
718	57808
719	58073,06
720	57892,84
721	58439,01
722	58017,24
723	57732,52
724	57363,88
725	57235,39
726	56843,7
727	56699,17
728	56788,23
729	56876,93
730	57013,27
731	56049,32
732	54629,67
733	53150,8
734	53312,65
735	53370,58
736	53098,84
737	53586,49
738	54027,92
739	55114,16
740	55364,36
741	55871,91
742	56110,41
743	56400,05
744	56535,68
745	56569,97
746	56042,07
747	55785,78
748	56159,09
749	56367,52
750	56732,52
751	56774,3
752	56562,48
753	56542,59
754	55592,92
755	54454,48
756	53309,72
757	53466,07
758	53973,85
759	54563,67
760	55091,11
761	55418,08
762	55666,29
763	55667,58
764	55790,22
765	56100,7
766	56343,18
767	56088,88
768	55472,38
769	54660,56
770	54230,96
771	54253,19
772	54330,55
773	54267,47
774	54525,75
775	54838,56
776	54989,06
777	55430,48
778	54817,73
779	54469,34
780	53918,03
781	54251,32
782	54406,15
783	54147,4
784	54044,77
785	53735,58
786	52940,5
787	52625,7
788	52136,18
789	52141,91
790	52476,96
791	52614,23
792	52457,18
793	52542,85
794	52392,12
795	53215,99
796	52755,48
797	53203,7
798	52877,54
799	52863,15
800	52821,37
801	52819,15
802	52605,57
803	52475,91
804	52204,87
805	51874,39
806	51949,17
807	51810,73
808	52347,06
809	52087,38
810	51902,59
811	51804,41
812	51585,22
813	51676,97
814	51709,85
815	51678,6
816	51518,16
817	51271,23
818	51138,88
819	51357,72
820	51391,07
821	51645,02
822	51401,48
823	51181,47
824	51102,83
825	50573,29
826	50044,68
827	49694,88
828	49539,12
829	49285,52
830	48635,44
831	48167,8
832	47830,53
833	47717,48
834	48208,06
835	48068,45
836	48313,27
837	48399,63
838	47759,38
839	47928,01
840	47961,72
841	47787,93
842	47520,99
843	47888,57
844	47377,05
845	47253,82
846	47035,22
847	46645,52
848	46350,96
849	46327,91
850	46453,83
851	46810,29
852	46631,24
853	46356,11
854	46097,6
855	46239,08
856	46301,34
857	46461,78
858	45746,05
859	45669,51
860	45399,42
861	45802,57
862	46174,48
863	46549,91
864	46647,97
865	46428,08
866	46342,42
867	45948,27
868	45685,31
869	45061,44
870	44560,33
871	43981,64
872	43792,99
873	43597,44
874	43299,37
875	42920,79
876	42317,28
877	41862,87
878	41416,41
879	41336,6
880	41295,99
881	41507,1
882	41323,72
883	41071,76
884	41230,69
885	41085,57
886	41067,2
887	41248,71
888	41069,42
889	40886,39
890	40788,79
891	40625,78
892	40225,54
893	39803,31
894	39110,86
895	38712,15
896	38886,29
897	38878,68
898	38869,32
899	38587,29
900	38277,63
901	36978,28
902	35711,12
903	35015,63
904	35078,71
905	35573,96
906	36132,18
907	36678,58
908	36723,05
909	36972,67
910	36911,81
911	37041,36
912	37110,06
913	37234,69
914	37388,7
915	37380,51
916	37186,48
917	37408,01
918	37688,64
919	37882,2
920	38049,9
921	38048,03
922	38214,32
923	37930,53
924	38098,35
925	37904,2
926	37877,75
927	37950,08
928	37624,39
929	37613,86
930	37636,79
931	37096,72
932	36878,23
933	36702,1
934	36377,7
935	36282,79
936	36467,11
937	36150,55
938	36277,29
939	36236,92
940	35623
941	35363,67
942	35048,86
943	34652,38
944	34282,46
945	34179
946	33709,49
947	33404,99
948	32813,89
949	32416,46
950	32531,15
951	31737,71
952	31410,27
953	31349,65
954	31039,41
955	31032,04
956	30599,15
957	30255,33
958	30065,04
959	29702,38
960	29432,98
961	28891,85
962	28854,75
963	28722,63
964	28552,36
965	28131,53
966	27809,35
967	27300,75
968	27106,72
969	27041,77
970	27072,55
971	27035,81
972	27098,77
973	26764,42
974	26716,91
975	26776,59
976	26724,28
977	26534,11
978	26376,95
979	26248,57
980	25841,9
981	25710,36
982	25404,22
983	25180,7
984	24867,53
985	24621,89
986	24335,53
987	24117,98
988	23910,61
989	23652,56
990	23491,53
991	23751,57
992	23465,9
993	23257,83
994	22795,93
995	22506,64
996	22302,77
997	22272,82
998	22141,04
999	21952,98
1000	21750,17
1001	21644,38
1002	21690,26
1003	21559,54
1004	21357,2
1005	21339,29
1006	21405,76
1007	21375,45
1008	21345,14
1009	21180,49
1010	21052,58
1011	21114,84
1012	21027,18
1013	21021,33
1014	20794,53
1015	20669,08
1016	20739,65
1017	20566,1
1018	20646,61
1019	20663,81
1020	20453,17
1021	20426,37
1022	20318,12
1023	19990,44
1024	19790,68
1025	19684,65
1026	19584,13
1027	19333,81
1028	19371,6
1029	19165,87
1030	19196,3
1031	19224,74
1032	19024,62
1033	19009,99
1034	18819,94
1035	18816,55
1036	18615,73
1037	18583,08
1038	18363,65
1039	18224,27
1040	18104,91
1041	17955,11
1042	17722,11
1043	17685,48
1044	17512,28
1045	17337,45
1046	17099,41
1047	16869,69
1048	16842,19
1049	17017,03
1050	17071,68
1051	16956,41
1052	16834,35
1053	16696,72
1054	16656,23
1055	16610,24
1056	16610,12
1057	16522,7
1058	16455,18
1059	16022,3
1060	15843,72
1061	15269,23
1062	14467,95
1063	13908,21
1064	13660,81
1065	14023,95
1066	14275,09
1067	14602,41
1068	14730,56
1069	14985,32
1070	14921,54
1071	14846,41
1072	14932,78
1073	14904,69
1074	14913,47
1075	14914,99
1076	14758,99
1077	14707,27
1078	14591,06
1079	14584,86
1080	14457,3
1081	14297,21
1082	14236,24
1083	14175,38
1084	14037,99
1085	14018,21
1086	13974,8
1087	13682
1088	13713,01
1089	13503,41
1090	13431,56
1091	13266,9
1092	13238,82
1093	13137,82
1094	12967,78
1095	12970,71
1096	12812,14
1097	12697,33
1098	12553,27
1099	12557,14
1100	12281,19
1101	12222,67
1102	12081,3
1103	12017,52
1104	11990,14
1105	11854,86
1106	11813,9
1107	11685,17
1108	11530,34
1109	11444,44
1110	11370,02
1111	11332,33
1112	11189,79
1113	11033,21
1114	11022,33
1115	10984,3
1116	10849,71
1117	10697,46
1118	10539,71
1119	10535,26
1120	10461,77
1121	10426,9
1122	10236,73
1123	10110,92
1124	10108,7
1125	10005,37
1126	9946,85
1127	9847,38
1128	9699,11
1129	9569,68
1130	9481,55
1131	9299,69
1132	9298,52
1133	9194,49
1134	9085,42
1135	8922,28
1136	8415,91
1137	7696,54
1138	7109,3
1139	6879,93
1140	6839,09
1141	6862,03
1142	6819,31
1143	6845,29
1144	6856,64
1145	6851,14
1146	6980,69
1147	7078,06
1148	7133,18
1149	7198,6
1150	7232,3
1151	7274,66
1152	7279,23
1153	7269,75
1154	7265,07
1155	7176,13
1156	7132,83
1157	7116,21
1158	7053,48
1159	7056,88
1160	7093,15
1161	7062,38
1162	7100,06
1163	6989,12
1164	7005,15
1165	6927,33
1166	6946,4
1167	6858,16
1168	6715,04
1169	6701,58
1170	6585,02
1171	6572,39
1172	6504,51
1173	6379,17
1174	6315,04
1175	6292,93
1176	6320,78
1177	6274,55
1178	6257,12
1179	6281,46
1180	6216,86
1181	6263,79
1182	6211,59
1183	6188,3
1184	6092,69
1185	6067,88
1186	6032,07
1187	6075,72
1188	5985,5
1189	6016,27
1190	5923,35
1191	5925,46
1192	5810,77
1193	5741,85
1194	5810,07
1195	5807,62
1196	5648,22
1197	5651,62
1198	5611,71
1199	5561,04
1200	5539,27
1201	5578,59
1202	5411,83
1203	5392,87
1204	5347,93
1205	5283,22
1206	5237,58
1207	5220,96
1208	5173,56
1209	5053,49
1210	4907,33
1211	4732,84
1212	4567,01
1213	4434,66
1214	4254,79
1215	4106,28
1216	4017,46
1217	3931,21
1218	3860,17
1219	3894,34
1220	3903
1221	4006,81
1222	4140,1
1223	4179,54
1224	4218,63
1225	4242,03
1226	4169,01
1227	4032,08
1228	3970,76
1229	3893,76
1230	3821,9
1231	3821,67
1232	3797,21
1233	3750,17
1234	3799,2
1235	3765,97
1236	3743,03
1237	3732,96
1238	3674,92
1239	3679,37
1240	3640,75
1241	3616,99
1242	3620,38
1243	3618,51
1244	3601,31
1245	3629,75
1246	3605,05
1247	3594,64
1248	3658,18
1249	3611,84
1250	3660,29
1251	3662,4
1252	3657,72
1253	3710,38
1254	3681,94
1255	3727,35
1256	3684,87
1257	3675,86
1258	3650,11
1259	3591,48
1260	3576,27
1261	3552,63
1262	3546,77
1263	3525,83
1264	3477,73
1265	3451,51
1266	3420,85
1267	3438,64
1268	3402,01
1269	3355,67
1270	3355,67
1271	3317,87
1272	3309,33
1273	3282,76
1274	3222,38
1275	3250,93
1276	3238,88
1277	3237
1278	3165,03
1279	3164,1
1280	3141,63
1281	3166,2
1282	3131,91
1283	3131,68
1284	3049,41
1285	3029,4
1286	3027,88
1287	2999,09
1288	2936,71
1289	2960,47
1290	2913,78
1291	2876,8
1292	2875,86
1293	2839,35
1294	2836,42
1295	2815,71
1296	2805,06
1297	2763,51
1298	2802,13
1299	2759,07
1300	2752,63
1301	2726,3
1302	2740,11
1303	2758,01
1304	2716
1305	2699,15
1306	2700,2
1307	2669,07
1308	2655,85
1309	2637,71
1310	2597,92
1311	2586,69
1312	2563,16
1313	2527,47
1314	2493,42
1315	2378,61
1316	2173,93
1317	1829,99
1318	1489,79
1319	1201,91
1320	1010,57
1321	943,75
1322	968,56
1323	1028,36
1324	1009,4
1325	1006,12
1326	997,7
1327	1022,74
1328	1046,15
1329	1066,63
1330	1125,96
1331	1209,28
1332	1281,6
1333	1364,34
1334	1438,07
1335	1497,17
1336	1581,08
1337	1626,72
1338	1682,89
1339	1707,93
1340	1732,74
1341	1758,84
1342	1746,67
1343	1760,48
1344	1759,54
1345	1738,24
1346	1710,51
1347	1721,27
1348	1693,54
1349	1684,64
1350	1692,84
1351	1678,21
1352	1673,41
1353	1649,54
1354	1607,29
1355	1606,35
1356	1612,91
1357	1586,58
1358	1590,79
1359	1564,34
1360	1574,05
1361	1554,98
1362	1536,96
1363	1508,75
1364	1487,69
1365	1476,92
1366	1480,32
1367	1480,78
1368	1433,15
1369	1431,75
1370	1426,25
1371	1437,83
1372	1423,79
1373	1405,3
1374	1399,57
1375	1386,69
1376	1357,44
1377	1349,6
1378	1331,34
1379	1337,19
1380	1320,57
1381	1313,08
1382	1296,23
1383	1279,97
1384	1298,69
1385	1283,94
1386	1273,53
1387	1262,76
1388	1241,46
1389	1230,93
1390	1218,88
1391	1201,91
1392	1208,81
1393	1182,13
1394	1172,77
1395	1171,95
1396	1154,86
1397	1142,93
1398	1112,27
1399	1126,54
1400	1109,46
1401	1119,76
1402	1125,72
1403	1101,62
1404	1098,57
1405	1086,29
1406	1085,35
1407	1057,03
1408	1068,5
1409	1036,2
1410	1039,94
1411	1036,55
1412	1047,9
1413	1031,87
1414	1022,39
1415	1020,63
1416	1009,05
1417	1013,5
1418	994,54
1419	993,6
1420	997,7
1421	963,99
1422	971,02
1423	986,7
1424	965,28
1425	961,77
1426	957,32
1427	937,43
1428	942,58
1429	935,09
1430	922,1
1431	908,76
1432	926,08
1433	914,49
1434	896,12
1435	906,3
1436	902,55
1437	898,11
1438	894,13
1439	887,69
1440	881,26
1441	873,18
1442	864,4
1443	861,83
1444	852,94
1445	841,35
1446	837,02
1447	823,44
1448	835,85
1449	828,24
1450	819,11
1451	811,86
1452	783,42
1453	779,91
1454	769,61
1455	745,97
1456	758,73
1457	753,93
1458	731,11
1459	721,4
1460	725,73
1461	701,27
1462	684,53
1463	698,46
1464	700,33
1465	674,47
1466	685,59
1467	686,52
1468	687,81
1469	686,41
1470	688,16
1471	685,59
1472	694,25
1473	686,76
1474	694,25
1475	696,82
1476	681,84
1477	651,77
1478	629,41
1479	646,85
1480	641,12
1481	650,48
1482	667,33
1483	668,5
1484	682,54
1485	671,54
1486	664,4
1487	662,53
1488	667,45
1489	661,36
1490	652,47
1491	627,78
1492	642,87
1493	634,8
1494	622,63
1495	639,6
1496	626,25
1497	638,43
1498	626,25
1499	631,75
1500	624,85
1501	627,31
1502	632,92
1503	628,36
1504	616,31
1505	621,11
1506	617,83
1507	626,25
1508	608,82
1509	611,39
1510	606,48
1511	610,1
1512	627,19
1513	610,69
1514	613,62
1515	620,52
1516	615,96
1517	604,25
1518	601,56
1519	611,16
1520	595,13
1521	600,16
1522	584,12
1523	613,26
1524	599,81
1525	586,47
1526	579,44
1527	592,9
1528	577,34
1529	580,5
1530	582,84
1531	564,11
1532	577,45
1533	565,52
1534	569,26
1535	571,95
1536	564,7
1537	554,75
1538	568,79
1539	569,61
1540	559,31
1541	551,47
1542	556,97
1543	555,8
1544	548,2
1545	547,96
1546	538,84
1547	523,5
1548	541,88
1549	543,75
1550	516,48
1551	526,66
1552	519,76
1553	532,98
1554	525,85
1555	516,95
1556	527,95
1557	520,81
1558	506,07
1559	503,38
1560	482,19
1561	495,89
1562	488,28
1563	481,61
1564	501,74
1565	509,23
1566	485,59
1567	498,81
1568	500,68
1569	485
1570	502,91
1571	502,21
1572	503,84
1573	496,59
1574	488,75
1575	475,41
1576	476,81
1577	474,35
1578	485,71
1579	479,85
1580	477,75
1581	468,27
1582	475,52
1583	468,39
1584	480,79
1585	475,17
1586	480,44
1587	470,02
1588	478,57
1589	464,87
1590	454,11
1591	454,58
1592	449,43
1593	437,72
1594	455,28
1595	454,93
1596	467,68
1597	455,28
1598	442,87
1599	454,81
1600	450,01
1601	463,59
1602	444,51
1603	444,98
1604	443,34
1605	449,54
1606	443,58
1607	442,17
1608	442,64
1609	443,46
1610	433,04
1611	446,15
1612	436,2
1613	444,51
1614	413,03
1615	435,03
1616	430,59
1617	424,62
1618	427,54
1619	432,69
1620	443,81
1621	409,05
1622	420,17
1623	424,85
1624	422,63
1625	430,47
1626	417,6
1627	410,81
1628	422,86
1629	406,95
1630	424,38
1631	427,19
1632	412,8
1633	410,46
1634	413,5
1635	420,99
1636	403,79
1637	420,52
1638	406,83
1639	412,68
1640	417,71
1641	421,69
1642	417,24
1643	412,56
1644	407,06
1645	417,01
1646	415,84
1647	403,44
1648	430,12
1649	433,98
1650	414,08
1651	421,81
1652	417,95
1653	407,3
1654	431,76
1655	413,62
1656	411,51
1657	432,69
1658	409,87
1659	428,95
1660	404,72
1661	413,5
1662	398,05
1663	407,77
1664	406,83
1665	400,39
1666	397,47
1667	398,05
1668	395,71
1669	395,13
1670	407,41
1671	386,7
1672	379,91
1673	389,51
1674	380,38
1675	392,43
1676	391,15
1677	373,36
1678	369,73
1679	387,29
1680	382,6
1681	377,34
1682	379,21
1683	382,72
1684	389,86
1685	379,09
1686	368,21
1687	373,48
1688	372,77
1689	383,66
1690	370,43
1691	373,48
1692	379,09
1693	368,91
1694	382,6
1695	370,78
1696	380,26
1697	392,32
1698	373,48
1699	363,65
1700	367,39
1701	372,66
1702	376,87
1703	374,53
1704	372,19
1705	370,08
1706	358,85
1707	360,72
1708	373,94
1709	380,5
1710	379,56
1711	358,97
1712	358,03
1713	357,09
1714	360,49
1715	366,34
1716	381,43
1717	360,25
1718	355,1
1719	351,83
1720	353,23
1721	351,24
1722	345,51
1723	349,95
1724	351,83
1725	358,15
1726	355,69
1727	361,31
1728	352,18
1729	367,39
1730	353,7
1731	343,87
1732	347,85
1733	362,94
1734	356,62
1735	371,37
1736	368,44
1737	352,76
1738	358,5
1739	378,16
1740	364,82
1741	369,38
1742	354,28
1743	346,21
1744	345,86
1745	359,67
1746	357,44
1747	358,26
1748	355,57
1749	350,66
1750	352,76
1751	354,28
1752	348,32
1753	352,29
1754	350,19
1755	369,38
1756	352,53
1757	346,91
1758	330,06
1759	353,7
1760	355,45
1761	344,34
1762	345,04
1763	345,04
1764	337,43
1765	340,59
1766	341,29
1767	341,88
1768	325,73
1769	340,71
1770	333,8
1771	326,2
1772	338,25
1773	321,87
1774	328,54
1775	343,05
1776	334,74
1777	332,75
1778	338,6
1779	326,9
1780	344,22
1781	331,58
1782	353
1783	345,62
1784	330,18
1785	337,08
1786	338,72
1787	336,03
1788	323,39
1789	331,35
1790	330,29
1791	312,04
1792	319,76
1793	339,54
1794	337,55
1795	332,75
1796	326,2
1797	320,7
1798	342,11
1799	334,16
1800	321,52
1801	350,66
1802	340,71
1803	329,47
1804	347,38
1805	329,24
1806	330,18
1807	329,01
1808	343,4
1809	341,41
1810	334,27
1811	340,83
1812	335,68
1813	338,49
1814	319,29
1815	342
1816	323,15
1817	322,34
1818	342,11
1819	340,24
1820	338,6
1821	305,13
1822	330,29
1823	334,97
1824	341,88
1825	335,09
1826	325,96
1827	339,07
1828	319,88
1829	328,19
1830	328,89
1831	326,2
1832	327,02
1833	334,62
1834	328,66
1835	336,03
1836	339,07
1837	323,15
1838	318,36
1839	337,2
1840	328,19
1841	332,52
1842	322,34
1843	329,01
1844	330,06
1845	335,91
1846	351,48
1847	323,51
1848	330,76
1849	338,37
1850	334,62
1851	340,59
1852	324,91
1853	342,82
1854	329,94
1855	329,12
1856	336,61
1857	329,59
1858	330,64
1859	318,36
1860	331,23
1861	327,37
1862	327,02
1863	335,68
1864	326,78
1865	330,76
1866	335,91
1867	352,41
1868	340,94
1869	331,11
1870	333,45
1871	334,39
1872	321,63
1873	329,47
1874	332,17
1875	316,6
1876	317,65
1877	322,22
1878	326,08
1879	329,36
1880	335,68
1881	321,75
1882	334,86
1883	321,75
1884	312,15
1885	335,79
1886	330,76
1887	336,73
1888	327,6
1889	340,59
1890	327,72
1891	324,91
1892	323,86
1893	316,84
1894	328,66
1895	323,15
1896	320,23
1897	327,95
1898	327,48
1899	320,7
1900	322,8
1901	324,56
1902	305,72
1903	323,74
1904	316,02
1905	320,93
1906	334,39
1907	327,13
1908	333,57
1909	327,84
1910	320,81
1911	329,94
1912	332,87
1913	318,36
1914	325,61
1915	320
1916	336,96
1917	326,9
1918	325,61
1919	341,18
1920	320
1921	331,35
1922	322,22
1923	331,93
1924	338,6
1925	339,3
1926	316,95
1927	336,73
1928	324,44
1929	331,93
1930	325,5
1931	335,33
1932	316,6
1933	323,74
1934	314,14
1935	318,82
1936	325,61
1937	315,43
1938	328,19
1939	344,57
1940	320,35
1941	330,18
1942	320,23
1943	326,55
1944	337,43
1945	320,58
1946	323,15
1947	337,9
1948	319,18
1949	329,01
1950	315,78
1951	319,88
1952	316,37
1953	329,12
1954	323,97
1955	328,42
1956	327,25
1957	312,51
1958	328,3
1959	327,02
1960	322,92
1961	342,11
1962	328,54
1963	328,89
1964	316,13
1965	329,36
1966	329,47
1967	331,46
1968	328,19
1969	332,05
1970	332,99
1971	324,56
1972	328,66
1973	328,54
1974	321,52
1975	321,75
1976	328,89
1977	331,46
1978	317,77
1979	321,52
1980	324,44
1981	304,43
1982	319,29
1983	330,18
1984	330,06
1985	332,87
1986	329,71
1987	327,95
1988	323,04
1989	329,12
1990	321,75
1991	318,71
1992	330,06
1993	323,97
1994	327,02
1995	334,86
1996	314,49
1997	330,29
1998	316,72
1999	317,42
2000	332,75
2001	324,91
2002	318,01
2003	328,77
2004	325,85
2005	313,44
2006	330,53
2007	327,84
2008	322,45
2009	322,92
2010	322,45
2011	326,55
2012	332,4
2013	333,1
2014	311,45
2015	319,53
2016	318,82
2017	323,97
2018	330,53
2019	325,96
2020	325,14
2021	313,91
2022	318,82
2023	321,98
2024	323,27
2025	327,13
2026	315,2
2027	318,82
2028	332,87
2029	314,14
2030	315,31
2031	339,19
2032	329,71
2033	330,53
2034	320
2035	328,42
2036	334,27
2037	315,2
2038	321,75
2039	328,19
2040	312,39
2041	325,61
2042	322,45
2043	321,28
2044	321,4
2045	325,38
2046	325,38
2047	325,38
