Data from Absorbance__18__14-45-54-026.txt Node

Date: Wed Apr 28 14:45:54 CEST 2021
User: thoma
Spectrometer: FLMS05507
Trigger mode: 0
Integration Time (sec): 6,930000E-3
Scans to average: 200
Electric dark correction enabled: true
Nonlinearity correction enabled: false
Boxcar width: 0
XAxis mode: Wavelengths
Number of Pixels in Spectrum: 2048
>>>>>Begin Spectral Data<<<<<
188,96	-0
189,424	-0
189,887	-0
190,351	0,5
190,815	0,33
191,279	0,51
191,742	-0
192,206	-0,71
192,669	1,45
193,133	-0
193,596	0,92
194,06	-0,26
194,523	-0,54
194,987	-0
195,45	-0,14
195,913	-0
196,376	-0,27
196,84	0,01
197,303	-0,31
197,766	0,09
198,229	-0,77
198,692	-0,19
199,155	0,63
199,618	2,08
200,081	2,1
200,543	2,13
201,006	2,15
201,469	2,15
201,932	2,18
202,394	2,18
202,857	2,2
203,32	2,21
203,782	2,23
204,245	2,22
204,707	2,23
205,169	2,23
205,632	2,24
206,094	2,25
206,556	2,27
207,019	2,28
207,481	2,29
207,943	2,3
208,405	2,31
208,867	2,33
209,329	2,33
209,791	2,35
210,253	2,35
210,715	2,35
211,177	2,37
211,639	2,37
212,1	2,37
212,562	2,37
213,024	2,39
213,485	2,37
213,947	2,38
214,408	2,41
214,87	2,41
215,331	2,39
215,793	2,41
216,254	2,41
216,715	2,41
217,177	2,42
217,638	2,41
218,099	2,41
218,56	2,43
219,021	2,42
219,482	2,41
219,944	2,43
220,404	2,44
220,865	2,44
221,326	2,43
221,787	2,42
222,248	2,45
222,709	2,46
223,169	2,44
223,63	2,45
224,091	2,46
224,551	2,46
225,012	2,44
225,472	2,43
225,933	2,47
226,393	2,45
226,854	2,44
227,314	2,47
227,774	2,44
228,234	2,46
228,695	2,46
229,155	2,45
229,615	2,46
230,075	2,46
230,535	2,45
230,995	2,45
231,455	2,47
231,915	2,46
232,375	2,46
232,834	2,46
233,294	2,44
233,754	2,47
234,214	2,45
234,673	2,45
235,133	2,45
235,592	2,47
236,052	2,45
236,511	2,45
236,971	2,44
237,43	2,45
237,889	2,45
238,349	2,44
238,808	2,45
239,267	2,45
239,726	2,42
240,185	2,43
240,644	2,44
241,103	2,43
241,562	2,45
242,021	2,43
242,48	2,43
242,939	2,41
243,398	2,43
243,857	2,44
244,315	2,42
244,774	2,42
245,233	2,42
245,691	2,4
246,15	2,41
246,608	2,4
247,067	2,41
247,525	2,41
247,983	2,38
248,442	2,39
248,9	2,39
249,358	2,39
249,816	2,38
250,274	2,39
250,733	2,39
251,191	2,36
251,649	2,36
252,107	2,36
252,564	2,36
253,022	2,33
253,48	2,33
253,938	2,33
254,396	2,33
254,853	2,31
255,311	2,3
255,769	2,27
256,226	2,27
256,684	2,25
257,141	2,25
257,599	2,23
258,056	2,22
258,513	2,2
258,971	2,18
259,428	2,16
259,885	2,13
260,342	2,12
260,799	2,1
261,256	2,08
261,714	2,05
262,171	2,03
262,627	2,01
263,084	1,98
263,541	1,95
263,998	1,92
264,455	1,9
264,912	1,87
265,368	1,84
265,825	1,81
266,281	1,78
266,738	1,75
267,194	1,72
267,651	1,69
268,107	1,65
268,564	1,63
269,02	1,59
269,476	1,56
269,933	1,52
270,389	1,5
270,845	1,46
271,301	1,43
271,757	1,4
272,213	1,37
272,669	1,34
273,125	1,31
273,581	1,28
274,037	1,25
274,492	1,22
274,948	1,19
275,404	1,17
275,86	1,14
276,315	1,11
276,771	1,08
277,226	1,06
277,682	1,03
278,137	1,01
278,593	0,98
279,048	0,96
279,503	0,93
279,958	0,91
280,414	0,89
280,869	0,87
281,324	0,84
281,779	0,82
282,234	0,8
282,689	0,78
283,144	0,76
283,599	0,74
284,054	0,73
284,508	0,71
284,963	0,69
285,418	0,67
285,873	0,65
286,327	0,64
286,782	0,62
287,236	0,61
287,691	0,59
288,145	0,58
288,6	0,56
289,054	0,55
289,508	0,54
289,963	0,52
290,417	0,51
290,871	0,5
291,325	0,49
291,779	0,48
292,233	0,46
292,687	0,45
293,141	0,44
293,595	0,43
294,049	0,42
294,503	0,41
294,957	0,4
295,41	0,39
295,864	0,39
296,318	0,38
296,771	0,37
297,225	0,36
297,678	0,36
298,132	0,35
298,585	0,34
299,039	0,34
299,492	0,33
299,945	0,32
300,398	0,32
300,852	0,31
301,305	0,31
301,758	0,3
302,211	0,3
302,664	0,29
303,117	0,29
303,57	0,28
304,023	0,28
304,476	0,27
304,928	0,27
305,381	0,27
305,834	0,26
306,286	0,26
306,739	0,26
307,192	0,25
307,644	0,25
308,097	0,25
308,549	0,24
309,001	0,24
309,454	0,24
309,906	0,24
310,358	0,23
310,81	0,23
311,263	0,23
311,715	0,22
312,167	0,22
312,619	0,22
313,071	0,22
313,523	0,22
313,975	0,22
314,426	0,21
314,878	0,21
315,33	0,21
315,782	0,21
316,233	0,21
316,685	0,2
317,136	0,2
317,588	0,2
318,039	0,21
318,491	0,2
318,942	0,2
319,393	0,2
319,845	0,2
320,296	0,2
320,747	0,19
321,198	0,19
321,649	0,18
322,101	0,18
322,552	0,18
323,003	0,18
323,453	0,18
323,904	0,18
324,355	0,18
324,806	0,18
325,257	0,18
325,707	0,18
326,158	0,18
326,609	0,18
327,059	0,18
327,51	0,18
327,96	0,18
328,411	0,18
328,861	0,17
329,311	0,17
329,762	0,17
330,212	0,17
330,662	0,17
331,112	0,17
331,562	0,17
332,012	0,17
332,462	0,17
332,912	0,17
333,362	0,17
333,812	0,17
334,262	0,16
334,712	0,16
335,161	0,16
335,611	0,16
336,061	0,16
336,51	0,16
336,96	0,16
337,409	0,16
337,859	0,16
338,308	0,16
338,758	0,16
339,207	0,16
339,656	0,15
340,105	0,15
340,555	0,15
341,004	0,15
341,453	0,15
341,902	0,15
342,351	0,15
342,8	0,15
343,249	0,15
343,698	0,15
344,146	0,15
344,595	0,15
345,044	0,15
345,493	0,15
345,941	0,15
346,39	0,15
346,838	0,15
347,287	0,15
347,735	0,15
348,184	0,15
348,632	0,15
349,08	0,15
349,529	0,15
349,977	0,15
350,425	0,14
350,873	0,14
351,321	0,15
351,769	0,14
352,217	0,14
352,665	0,15
353,113	0,14
353,561	0,14
354,009	0,14
354,456	0,14
354,904	0,14
355,352	0,14
355,799	0,14
356,247	0,14
356,694	0,14
357,142	0,14
357,589	0,14
358,037	0,14
358,484	0,14
358,931	0,14
359,379	0,14
359,826	0,14
360,273	0,14
360,72	0,14
361,167	0,14
361,614	0,14
362,061	0,14
362,508	0,14
362,955	0,14
363,402	0,14
363,848	0,14
364,295	0,14
364,742	0,14
365,188	0,14
365,635	0,14
366,082	0,14
366,528	0,14
366,975	0,14
367,421	0,14
367,867	0,14
368,314	0,14
368,76	0,14
369,206	0,14
369,652	0,14
370,098	0,14
370,545	0,14
370,991	0,14
371,437	0,14
371,882	0,14
372,328	0,14
372,774	0,14
373,22	0,14
373,666	0,14
374,111	0,14
374,557	0,14
375,003	0,14
375,448	0,14
375,894	0,14
376,339	0,14
376,785	0,14
377,23	0,14
377,675	0,14
378,121	0,14
378,566	0,14
379,011	0,13
379,456	0,14
379,901	0,13
380,346	0,14
380,791	0,14
381,236	0,14
381,681	0,14
382,126	0,14
382,571	0,14
383,016	0,14
383,461	0,14
383,905	0,13
384,35	0,14
384,794	0,14
385,239	0,14
385,683	0,14
386,128	0,14
386,572	0,13
387,017	0,14
387,461	0,14
387,905	0,14
388,349	0,14
388,794	0,14
389,238	0,14
389,682	0,14
390,126	0,14
390,57	0,14
391,014	0,14
391,457	0,14
391,901	0,14
392,345	0,14
392,789	0,13
393,233	0,14
393,676	0,13
394,12	0,13
394,563	0,14
395,007	0,14
395,45	0,14
395,894	0,14
396,337	0,14
396,78	0,14
397,224	0,14
397,667	0,14
398,11	0,13
398,553	0,13
398,996	0,13
399,439	0,13
399,882	0,14
400,325	0,14
400,768	0,14
401,211	0,14
401,654	0,14
402,096	0,14
402,539	0,14
402,982	0,14
403,424	0,14
403,867	0,14
404,309	0,14
404,752	0,14
405,194	0,14
405,637	0,14
406,079	0,14
406,521	0,14
406,963	0,14
407,406	0,14
407,848	0,14
408,29	0,14
408,732	0,14
409,174	0,14
409,616	0,14
410,058	0,14
410,499	0,14
410,941	0,14
411,383	0,14
411,825	0,14
412,266	0,14
412,708	0,14
413,15	0,14
413,591	0,14
414,033	0,14
414,474	0,14
414,915	0,14
415,357	0,14
415,798	0,14
416,239	0,14
416,68	0,14
417,121	0,14
417,563	0,14
418,004	0,14
418,445	0,14
418,885	0,14
419,326	0,14
419,767	0,14
420,208	0,14
420,649	0,14
421,089	0,14
421,53	0,14
421,971	0,14
422,411	0,14
422,852	0,14
423,292	0,14
423,733	0,14
424,173	0,14
424,613	0,14
425,054	0,14
425,494	0,14
425,934	0,14
426,374	0,14
426,814	0,14
427,254	0,14
427,694	0,14
428,134	0,14
428,574	0,14
429,014	0,14
429,454	0,14
429,893	0,14
430,333	0,14
430,773	0,14
431,212	0,14
431,652	0,14
432,091	0,14
432,531	0,14
432,97	0,14
433,41	0,14
433,849	0,14
434,288	0,14
434,727	0,14
435,167	0,14
435,606	0,14
436,045	0,14
436,484	0,14
436,923	0,15
437,362	0,14
437,801	0,14
438,239	0,14
438,678	0,15
439,117	0,14
439,556	0,14
439,994	0,14
440,433	0,15
440,871	0,15
441,31	0,15
441,748	0,15
442,187	0,15
442,625	0,15
443,063	0,15
443,502	0,15
443,94	0,15
444,378	0,15
444,816	0,15
445,254	0,15
445,692	0,15
446,13	0,15
446,568	0,15
447,006	0,15
447,444	0,15
447,881	0,15
448,319	0,15
448,757	0,15
449,194	0,15
449,632	0,15
450,07	0,15
450,507	0,15
450,944	0,15
451,382	0,15
451,819	0,15
452,256	0,15
452,694	0,15
453,131	0,15
453,568	0,15
454,005	0,15
454,442	0,15
454,879	0,15
455,316	0,15
455,753	0,15
456,19	0,15
456,627	0,15
457,063	0,15
457,5	0,15
457,937	0,15
458,373	0,15
458,81	0,15
459,246	0,15
459,683	0,15
460,119	0,15
460,556	0,15
460,992	0,15
461,428	0,15
461,864	0,15
462,301	0,15
462,737	0,15
463,173	0,15
463,609	0,16
464,045	0,16
464,481	0,16
464,917	0,15
465,352	0,16
465,788	0,15
466,224	0,15
466,66	0,15
467,095	0,15
467,531	0,16
467,966	0,16
468,402	0,16
468,837	0,16
469,273	0,16
469,708	0,16
470,143	0,16
470,578	0,16
471,014	0,16
471,449	0,16
471,884	0,16
472,319	0,16
472,754	0,16
473,189	0,16
473,624	0,16
474,059	0,16
474,493	0,16
474,928	0,16
475,363	0,16
475,797	0,16
476,232	0,16
476,667	0,16
477,101	0,16
477,536	0,16
477,97	0,16
478,404	0,16
478,839	0,16
479,273	0,16
479,707	0,16
480,141	0,16
480,575	0,16
481,009	0,16
481,444	0,16
481,877	0,16
482,311	0,16
482,745	0,16
483,179	0,16
483,613	0,16
484,047	0,16
484,48	0,16
484,914	0,16
485,347	0,16
485,781	0,16
486,214	0,16
486,648	0,16
487,081	0,16
487,515	0,16
487,948	0,16
488,381	0,16
488,814	0,16
489,247	0,17
489,68	0,17
490,113	0,17
490,546	0,17
490,979	0,17
491,412	0,17
491,845	0,17
492,278	0,17
492,711	0,17
493,143	0,17
493,576	0,17
494,009	0,17
494,441	0,17
494,874	0,17
495,306	0,17
495,738	0,17
496,171	0,17
496,603	0,17
497,035	0,17
497,467	0,17
497,9	0,17
498,332	0,17
498,764	0,17
499,196	0,17
499,628	0,17
500,06	0,17
500,491	0,17
500,923	0,17
501,355	0,17
501,787	0,17
502,218	0,17
502,65	0,17
503,081	0,17
503,513	0,17
503,944	0,17
504,376	0,17
504,807	0,17
505,238	0,17
505,67	0,17
506,101	0,17
506,532	0,17
506,963	0,17
507,394	0,17
507,825	0,17
508,256	0,17
508,687	0,17
509,118	0,17
509,549	0,17
509,979	0,17
510,41	0,17
510,841	0,17
511,271	0,17
511,702	0,17
512,132	0,17
512,563	0,17
512,993	0,17
513,424	0,17
513,854	0,17
514,284	0,17
514,714	0,17
515,145	0,17
515,575	0,17
516,005	0,17
516,435	0,17
516,865	0,17
517,295	0,17
517,724	0,17
518,154	0,17
518,584	0,17
519,014	0,17
519,443	0,17
519,873	0,17
520,303	0,17
520,732	0,18
521,161	0,18
521,591	0,18
522,02	0,18
522,45	0,18
522,879	0,18
523,308	0,18
523,737	0,18
524,166	0,18
524,595	0,18
525,024	0,18
525,453	0,18
525,882	0,18
526,311	0,18
526,74	0,18
527,169	0,18
527,597	0,18
528,026	0,18
528,455	0,18
528,883	0,18
529,312	0,18
529,74	0,18
530,168	0,18
530,597	0,18
531,025	0,18
531,453	0,18
531,882	0,18
532,31	0,18
532,738	0,18
533,166	0,18
533,594	0,18
534,022	0,18
534,45	0,18
534,878	0,18
535,305	0,18
535,733	0,18
536,161	0,18
536,588	0,18
537,016	0,18
537,444	0,18
537,871	0,18
538,299	0,18
538,726	0,18
539,153	0,18
539,581	0,18
540,008	0,18
540,435	0,18
540,862	0,18
541,289	0,18
541,716	0,18
542,143	0,18
542,57	0,18
542,997	0,18
543,424	0,18
543,851	0,18
544,277	0,18
544,704	0,18
545,131	0,18
545,557	0,18
545,984	0,18
546,41	0,18
546,837	0,18
547,263	0,18
547,69	0,18
548,116	0,18
548,542	0,18
548,968	0,18
549,394	0,18
549,82	0,18
550,246	0,18
550,672	0,18
551,098	0,18
551,524	0,18
551,95	0,18
552,376	0,18
552,802	0,18
553,227	0,18
553,653	0,18
554,078	0,18
554,504	0,18
554,929	0,18
555,355	0,18
555,78	0,18
556,206	0,18
556,631	0,18
557,056	0,18
557,481	0,18
557,906	0,18
558,331	0,18
558,756	0,18
559,181	0,19
559,606	0,19
560,031	0,19
560,456	0,19
560,881	0,18
561,305	0,18
561,73	0,18
562,155	0,19
562,579	0,19
563,004	0,19
563,428	0,19
563,853	0,18
564,277	0,19
564,701	0,19
565,126	0,19
565,55	0,19
565,974	0,19
566,398	0,19
566,822	0,19
567,246	0,19
567,67	0,19
568,094	0,19
568,518	0,19
568,941	0,19
569,365	0,19
569,789	0,19
570,213	0,19
570,636	0,19
571,06	0,19
571,483	0,19
571,907	0,18
572,33	0,18
572,753	0,19
573,177	0,19
573,6	0,19
574,023	0,19
574,446	0,19
574,869	0,19
575,292	0,19
575,715	0,19
576,138	0,19
576,561	0,19
576,984	0,19
577,407	0,19
577,829	0,19
578,252	0,18
578,675	0,18
579,097	0,19
579,52	0,19
579,942	0,19
580,364	0,19
580,787	0,19
581,209	0,19
581,631	0,19
582,054	0,19
582,476	0,18
582,898	0,19
583,32	0,19
583,742	0,19
584,164	0,19
584,586	0,19
585,008	0,19
585,429	0,19
585,851	0,19
586,273	0,19
586,694	0,19
587,116	0,19
587,538	0,19
587,959	0,19
588,38	0,19
588,802	0,19
589,223	0,19
589,644	0,19
590,066	0,19
590,487	0,2
590,908	0,2
591,329	0,2
591,75	0,2
592,171	0,2
592,592	0,2
593,013	0,2
593,434	0,19
593,854	0,2
594,275	0,2
594,696	0,2
595,116	0,2
595,537	0,2
595,957	0,2
596,378	0,2
596,798	0,2
597,218	0,2
597,639	0,2
598,059	0,2
598,479	0,2
598,899	0,2
599,319	0,2
599,739	0,2
600,159	0,2
600,579	0,2
600,999	0,2
601,419	0,2
601,839	0,2
602,259	0,2
602,678	0,2
603,098	0,2
603,517	0,2
603,937	0,2
604,356	0,2
604,776	0,2
605,195	0,2
605,614	0,2
606,034	0,2
606,453	0,2
606,872	0,2
607,291	0,2
607,71	0,2
608,129	0,2
608,548	0,2
608,967	0,21
609,386	0,21
609,805	0,21
610,223	0,21
610,642	0,21
611,061	0,21
611,479	0,21
611,898	0,21
612,316	0,21
612,735	0,21
613,153	0,21
613,571	0,21
613,99	0,21
614,408	0,21
614,826	0,21
615,244	0,21
615,662	0,21
616,08	0,21
616,498	0,21
616,916	0,21
617,334	0,22
617,752	0,22
618,169	0,22
618,587	0,22
619,005	0,22
619,422	0,22
619,84	0,22
620,257	0,22
620,675	0,22
621,092	0,22
621,509	0,22
621,927	0,22
622,344	0,22
622,761	0,22
623,178	0,22
623,595	0,22
624,012	0,22
624,429	0,22
624,846	0,22
625,263	0,23
625,68	0,23
626,097	0,23
626,513	0,23
626,93	0,23
627,346	0,23
627,763	0,23
628,179	0,23
628,596	0,23
629,012	0,23
629,429	0,23
629,845	0,23
630,261	0,23
630,677	0,23
631,093	0,23
631,509	0,23
631,925	0,23
632,341	0,24
632,757	0,24
633,173	0,24
633,589	0,24
634,005	0,24
634,42	0,24
634,836	0,24
635,252	0,24
635,667	0,24
636,083	0,24
636,498	0,24
636,913	0,24
637,329	0,24
637,744	0,24
638,159	0,24
638,574	0,24
638,99	0,24
639,405	0,24
639,82	0,25
640,235	0,25
640,65	0,25
641,064	0,25
641,479	0,25
641,894	0,25
642,309	0,25
642,723	0,25
643,138	0,25
643,552	0,25
643,967	0,25
644,381	0,25
644,796	0,25
645,21	0,25
645,624	0,25
646,038	0,25
646,453	0,26
646,867	0,26
647,281	0,26
647,695	0,26
648,109	0,26
648,523	0,26
648,936	0,26
649,35	0,26
649,764	0,26
650,178	0,26
650,591	0,26
651,005	0,26
651,418	0,26
651,832	0,26
652,245	0,26
652,659	0,27
653,072	0,27
653,485	0,27
653,898	0,27
654,312	0,27
654,725	0,27
655,138	0,27
655,551	0,27
655,964	0,26
656,377	0,26
656,789	0,27
657,202	0,27
657,615	0,27
658,028	0,27
658,44	0,28
658,853	0,28
659,265	0,28
659,678	0,28
660,09	0,28
660,503	0,28
660,915	0,28
661,327	0,28
661,739	0,28
662,152	0,28
662,564	0,28
662,976	0,29
663,388	0,29
663,8	0,29
664,211	0,29
664,623	0,29
665,035	0,29
665,447	0,29
665,858	0,29
666,27	0,29
666,682	0,29
667,093	0,29
667,505	0,29
667,916	0,29
668,327	0,3
668,739	0,3
669,15	0,3
669,561	0,3
669,972	0,3
670,383	0,3
670,794	0,3
671,205	0,3
671,616	0,3
672,027	0,3
672,438	0,3
672,849	0,3
673,259	0,31
673,67	0,31
674,08	0,31
674,491	0,31
674,901	0,31
675,312	0,31
675,722	0,31
676,133	0,31
676,543	0,31
676,953	0,31
677,363	0,32
677,773	0,32
678,183	0,32
678,593	0,32
679,003	0,32
679,413	0,32
679,823	0,32
680,233	0,32
680,643	0,32
681,052	0,32
681,462	0,32
681,872	0,32
682,281	0,33
682,691	0,33
683,1	0,33
683,509	0,33
683,919	0,33
684,328	0,33
684,737	0,33
685,146	0,33
685,555	0,33
685,964	0,33
686,373	0,34
686,782	0,34
687,191	0,34
687,6	0,34
688,009	0,34
688,417	0,34
688,826	0,34
689,235	0,34
689,643	0,34
690,052	0,35
690,46	0,35
690,869	0,35
691,277	0,35
691,685	0,35
692,093	0,35
692,502	0,35
692,91	0,35
693,318	0,35
693,726	0,35
694,134	0,35
694,542	0,36
694,949	0,36
695,357	0,36
695,765	0,36
696,173	0,36
696,58	0,36
696,988	0,36
697,395	0,36
697,803	0,36
698,21	0,37
698,618	0,37
699,025	0,37
699,432	0,37
699,839	0,37
700,247	0,37
700,654	0,37
701,061	0,37
701,468	0,37
701,875	0,38
702,281	0,38
702,688	0,38
703,095	0,38
703,502	0,38
703,908	0,38
704,315	0,38
704,722	0,38
705,128	0,38
705,534	0,39
705,941	0,39
706,347	0,39
706,753	0,39
707,16	0,39
707,566	0,39
707,972	0,39
708,378	0,39
708,784	0,39
709,19	0,39
709,596	0,4
710,002	0,4
710,407	0,4
710,813	0,4
711,219	0,4
711,625	0,4
712,03	0,4
712,436	0,4
712,841	0,4
713,246	0,41
713,652	0,41
714,057	0,41
714,462	0,41
714,868	0,41
715,273	0,41
715,678	0,41
716,083	0,41
716,488	0,41
716,893	0,41
717,297	0,42
717,702	0,42
718,107	0,42
718,512	0,42
718,916	0,42
719,321	0,42
719,725	0,42
720,13	0,42
720,534	0,42
720,939	0,43
721,343	0,42
721,747	0,43
722,151	0,43
722,556	0,43
722,96	0,43
723,364	0,43
723,768	0,43
724,172	0,43
724,576	0,43
724,979	0,44
725,383	0,44
725,787	0,44
726,19	0,44
726,594	0,44
726,998	0,44
727,401	0,44
727,805	0,44
728,208	0,44
728,611	0,44
729,014	0,45
729,418	0,45
729,821	0,45
730,224	0,45
730,627	0,45
731,03	0,45
731,433	0,45
731,836	0,45
732,239	0,45
732,641	0,45
733,044	0,46
733,447	0,46
733,849	0,46
734,252	0,46
734,654	0,46
735,057	0,46
735,459	0,46
735,862	0,46
736,264	0,46
736,666	0,46
737,068	0,46
737,47	0,47
737,872	0,47
738,274	0,47
738,676	0,47
739,078	0,47
739,48	0,47
739,882	0,47
740,284	0,47
740,685	0,47
741,087	0,47
741,488	0,47
741,89	0,47
742,291	0,48
742,693	0,48
743,094	0,48
743,495	0,48
743,897	0,48
744,298	0,48
744,699	0,48
745,1	0,48
745,501	0,48
745,902	0,48
746,303	0,48
746,704	0,49
747,105	0,49
747,505	0,49
747,906	0,49
748,307	0,49
748,707	0,49
749,108	0,49
749,508	0,49
749,908	0,49
750,309	0,49
750,709	0,49
751,109	0,49
751,51	0,49
751,91	0,49
752,31	0,49
752,71	0,5
753,11	0,5
753,51	0,5
753,909	0,5
754,309	0,5
754,709	0,5
755,109	0,5
755,508	0,5
755,908	0,5
756,307	0,5
756,707	0,5
757,106	0,5
757,505	0,5
757,905	0,5
758,304	0,5
758,703	0,5
759,102	0,51
759,501	0,5
759,9	0,5
760,299	0,51
760,698	0,51
761,097	0,51
761,496	0,51
761,895	0,51
762,293	0,51
762,692	0,51
763,09	0,51
763,489	0,51
763,887	0,51
764,286	0,51
764,684	0,51
765,082	0,51
765,481	0,51
765,879	0,51
766,277	0,51
766,675	0,51
767,073	0,51
767,471	0,51
767,869	0,51
768,267	0,51
768,664	0,51
769,062	0,52
769,46	0,52
769,857	0,52
770,255	0,52
770,653	0,52
771,05	0,52
771,447	0,52
771,845	0,52
772,242	0,52
772,639	0,52
773,036	0,52
773,433	0,52
773,831	0,52
774,228	0,52
774,624	0,52
775,021	0,52
775,418	0,52
775,815	0,52
776,212	0,52
776,608	0,52
777,005	0,52
777,401	0,52
777,798	0,52
778,194	0,52
778,591	0,53
778,987	0,53
779,383	0,52
779,78	0,52
780,176	0,53
780,572	0,53
780,968	0,53
781,364	0,53
781,76	0,53
782,156	0,53
782,551	0,53
782,947	0,53
783,343	0,53
783,739	0,53
784,134	0,53
784,53	0,53
784,925	0,53
785,321	0,53
785,716	0,53
786,111	0,53
786,507	0,53
786,902	0,53
787,297	0,53
787,692	0,53
788,087	0,53
788,482	0,53
788,877	0,53
789,272	0,53
789,667	0,53
790,061	0,53
790,456	0,53
790,851	0,53
791,245	0,53
791,64	0,53
792,034	0,53
792,429	0,53
792,823	0,53
793,217	0,53
793,612	0,53
794,006	0,53
794,4	0,53
794,794	0,53
795,188	0,53
795,582	0,53
795,976	0,53
796,37	0,53
796,763	0,53
797,157	0,53
797,551	0,53
797,944	0,53
798,338	0,53
798,731	0,53
799,125	0,53
799,518	0,53
799,912	0,53
800,305	0,53
800,698	0,53
801,091	0,53
801,484	0,53
801,877	0,53
802,27	0,53
802,663	0,53
803,056	0,53
803,449	0,53
803,842	0,53
804,235	0,53
804,627	0,53
805,02	0,53
805,412	0,53
805,805	0,53
806,197	0,53
806,59	0,53
806,982	0,53
807,374	0,53
807,766	0,53
808,159	0,53
808,551	0,53
808,943	0,53
809,335	0,53
809,727	0,53
810,118	0,53
810,51	0,53
810,902	0,53
811,294	0,53
811,685	0,53
812,077	0,53
812,468	0,53
812,86	0,53
813,251	0,53
813,643	0,53
814,034	0,53
814,425	0,53
814,816	0,53
815,207	0,53
815,598	0,53
815,989	0,53
816,38	0,53
816,771	0,53
817,162	0,53
817,553	0,53
817,944	0,53
818,334	0,53
818,725	0,53
819,115	0,53
819,506	0,53
819,896	0,53
820,287	0,53
820,677	0,53
821,067	0,53
821,457	0,53
821,848	0,53
822,238	0,53
822,628	0,53
823,018	0,53
823,408	0,53
823,797	0,53
824,187	0,53
824,577	0,53
824,967	0,53
825,356	0,53
825,746	0,53
826,135	0,53
826,525	0,53
826,914	0,53
827,304	0,53
827,693	0,53
828,082	0,53
828,471	0,53
828,86	0,53
829,249	0,53
829,638	0,53
830,027	0,53
830,416	0,53
830,805	0,53
831,194	0,53
831,582	0,53
831,971	0,53
832,36	0,53
832,748	0,53
833,137	0,53
833,525	0,53
833,914	0,53
834,302	0,53
834,69	0,53
835,078	0,53
835,466	0,53
835,854	0,53
836,243	0,53
836,63	0,53
837,018	0,53
837,406	0,53
837,794	0,53
838,182	0,53
838,569	0,53
838,957	0,53
839,345	0,53
839,732	0,53
840,12	0,53
840,507	0,53
840,894	0,53
841,282	0,53
841,669	0,53
842,056	0,53
842,443	0,53
842,83	0,53
843,217	0,52
843,604	0,53
843,991	0,53
844,378	0,52
844,764	0,53
845,151	0,53
845,538	0,53
845,924	0,52
846,311	0,53
846,697	0,53
847,084	0,53
847,47	0,52
847,856	0,52
848,242	0,52
848,629	0,52
849,015	0,52
849,401	0,52
849,787	0,52
850,173	0,52
850,559	0,52
850,944	0,52
851,33	0,52
851,716	0,53
852,102	0,52
852,487	0,52
852,873	0,52
853,258	0,52
853,644	0,52
854,029	0,52
854,414	0,52
854,799	0,52
855,185	0,52
855,57	0,52
855,955	0,52
856,34	0,52
856,725	0,52
857,11	0,52
857,495	0,52
857,879	0,52
858,264	0,52
858,649	0,52
859,033	0,52
859,418	0,52
859,802	0,52
860,187	0,52
860,571	0,52
860,955	0,52
861,34	0,52
861,724	0,52
862,108	0,52
862,492	0,52
862,876	0,52
863,26	0,52
863,644	0,52
864,028	0,52
864,412	0,52
864,795	0,52
865,179	0,52
865,563	0,52
865,946	0,51
866,33	0,52
866,713	0,52
867,097	0,52
867,48	0,51
867,863	0,51
868,246	0,51
868,629	0,51
869,013	0,52
869,396	0,52
869,779	0,52
870,161	0,51
870,544	0,52
870,927	0,51
871,31	0,51
871,693	0,51
872,075	0,51
872,458	0,51
872,84	0,51
873,223	0,51
873,605	0,51
873,987	0,51
874,37	0,51
874,752	0,51
875,134	0,51
875,516	0,51
875,898	0,51
876,28	0,51
876,662	0,51
877,044	0,51
877,426	0,51
877,807	0,51
878,189	0,51
878,571	0,51
878,952	0,51
879,334	0,51
879,715	0,51
880,097	0,51
880,478	0,51
880,859	0,51
881,24	0,51
881,622	0,51
882,003	0,51
882,384	0,51
882,765	0,51
883,146	0,51
883,526	0,51
883,907	0,51
884,288	0,51
884,669	0,51
885,049	0,51
885,43	0,51
885,81	0,51
886,191	0,51
886,571	0,52
886,952	0,52
887,332	0,51
887,712	0,51
888,092	0,52
888,472	0,52
888,852	0,52
889,232	0,51
889,612	0,52
889,992	0,52
890,372	0,52
890,752	0,52
891,131	0,52
891,511	0,52
891,89	0,52
892,27	0,52
892,649	0,52
893,029	0,52
893,408	0,52
893,787	0,52
894,167	0,52
894,546	0,52
894,925	0,52
895,304	0,52
895,683	0,52
896,062	0,52
896,441	0,52
896,819	0,52
897,198	0,52
897,577	0,52
897,955	0,52
898,334	0,52
898,712	0,52
899,091	0,52
899,469	0,52
899,848	0,52
900,226	0,52
900,604	0,52
900,982	0,52
901,36	0,52
901,738	0,52
902,116	0,52
902,494	0,52
902,872	0,52
903,25	0,52
903,628	0,52
904,005	0,52
904,383	0,52
904,76	0,52
905,138	0,52
905,515	0,52
905,893	0,52
906,27	0,52
906,647	0,52
907,024	0,52
907,402	0,52
907,779	0,52
908,156	0,52
908,533	0,52
908,91	0,52
909,286	0,52
909,663	0,52
910,04	0,52
910,417	0,52
910,793	0,52
911,17	0,52
911,546	0,52
911,923	0,52
912,299	0,52
912,675	0,52
913,051	0,52
913,428	0,52
913,804	0,52
914,18	0,51
914,556	0,52
914,932	0,52
915,308	0,52
915,683	0,52
916,059	0,52
916,435	0,52
916,811	0,52
917,186	0,52
917,562	0,52
917,937	0,52
918,313	0,52
918,688	0,51
919,063	0,51
919,438	0,52
919,814	0,52
920,189	0,52
920,564	0,51
920,939	0,52
921,314	0,51
921,689	0,51
922,063	0,52
922,438	0,52
922,813	0,51
923,187	0,51
923,562	0,51
923,936	0,51
924,311	0,51
924,685	0,51
925,06	0,51
925,434	0,51
925,808	0,51
926,182	0,51
926,556	0,51
926,93	0,51
927,304	0,51
927,678	0,51
928,052	0,5
928,426	0,5
928,8	0,5
929,173	0,51
929,547	0,51
929,92	0,5
930,294	0,5
930,667	0,5
931,041	0,5
931,414	0,5
931,787	0,5
932,161	0,5
932,534	0,5
932,907	0,5
933,28	0,5
933,653	0,5
934,026	0,5
934,398	0,5
934,771	0,5
935,144	0,5
935,517	0,49
935,889	0,49
936,262	0,49
936,634	0,49
937,007	0,49
937,379	0,48
937,751	0,49
938,123	0,49
938,496	0,49
938,868	0,48
939,24	0,49
939,612	0,48
939,984	0,49
940,355	0,49
940,727	0,48
941,099	0,48
941,471	0,48
941,842	0,48
942,214	0,48
942,585	0,47
942,957	0,47
943,328	0,48
943,7	0,48
944,071	0,48
944,442	0,48
944,813	0,47
945,184	0,47
945,555	0,47
945,926	0,48
946,297	0,48
946,668	0,48
947,039	0,47
947,409	0,47
947,78	0,47
948,151	0,47
948,521	0,47
948,892	0,46
949,262	0,46
949,633	0,47
950,003	0,47
950,373	0,46
950,743	0,46
951,113	0,45
951,483	0,46
951,853	0,45
952,223	0,45
952,593	0,46
952,963	0,46
953,333	0,45
953,702	0,45
954,072	0,46
954,442	0,45
954,811	0,47
955,181	0,45
955,55	0,46
955,919	0,45
956,289	0,44
956,658	0,44
957,027	0,44
957,396	0,44
957,765	0,45
958,134	0,44
958,503	0,45
958,872	0,43
959,24	0,44
959,609	0,44
959,978	0,45
960,346	0,44
960,715	0,44
961,083	0,44
961,452	0,44
961,82	0,45
962,188	0,44
962,557	0,43
962,925	0,44
963,293	0,43
963,661	0,43
964,029	0,43
964,397	0,43
964,765	0,42
965,133	0,42
965,5	0,42
965,868	0,42
966,236	0,42
966,603	0,43
966,971	0,43
967,338	0,41
967,706	0,41
968,073	0,42
968,44	0,44
968,807	0,43
969,174	0,43
969,542	0,42
969,909	0,42
970,275	0,41
970,642	0,42
971,009	0,41
971,376	0,43
971,743	0,42
972,109	0,44
972,476	0,42
972,842	0,41
973,209	0,42
973,575	0,43
973,942	0,43
974,308	0,42
974,674	0,42
975,04	0,42
975,406	0,41
975,772	0,44
976,138	0,4
976,504	0,4
976,87	0,43
977,236	0,42
977,602	0,4
977,967	0,42
978,333	0,41
978,698	0,43
979,064	0,42
979,429	0,43
979,795	0,39
980,16	0,4
980,525	0,42
980,89	0,43
981,255	0,45
981,621	0,41
981,986	0,4
982,35	0,42
982,715	0,42
983,08	0,43
983,445	0,43
983,81	0,42
984,174	0,42
984,539	0,4
984,903	0,4
985,268	0,43
985,632	0,41
985,996	0,43
986,361	0,42
986,725	0,42
987,089	0,4
987,453	0,41
987,817	0,41
988,181	0,4
988,545	0,42
988,909	0,4
989,272	0,42
989,636	0,43
990	0,43
990,363	0,42
990,727	0,41
991,09	0,42
991,454	0,43
991,817	0,42
992,18	0,42
992,543	0,41
992,907	0,42
993,27	0,41
993,633	0,38
993,996	0,41
994,359	0,39
994,721	0,42
995,084	0,42
995,447	0,42
995,81	0,4
996,172	0,43
996,535	0,42
996,897	0,39
997,259	0,42
997,622	0,39
997,984	0,43
998,346	0,42
998,708	0,38
999,071	0,43
999,433	0,41
999,795	0,39
1000,156	0,44
1000,518	0,38
1000,88	0,43
1001,242	0,4
1001,603	0,38
1001,965	0,4
1002,327	0,4
1002,688	0,44
1003,049	0,4
1003,411	0,38
1003,772	0,4
1004,133	0,42
1004,495	0,4
1004,856	0,42
1005,217	0,41
1005,578	0,41
1005,939	0,4
1006,299	0,42
1006,66	0,41
1007,021	0,38
1007,382	0,41
1007,742	0,38
1008,103	0,41
1008,463	0,38
1008,824	0,45
1009,184	0,41
1009,544	0,44
1009,904	0,4
1010,265	0,41
1010,625	0,39
1010,985	0,39
1011,345	0,39
1011,705	0,4
1012,065	0,42
1012,424	0,4
1012,784	0,38
1013,144	0,42
1013,503	0,4
1013,863	0,41
1014,222	0,36
1014,582	0,39
1014,941	0,39
1015,3	0,4
1015,66	0,4
1016,019	0,41
1016,378	0,37
1016,737	0,38
1017,096	0,38
1017,455	0,43
1017,814	0,42
1018,173	0,38
1018,531	0,42
1018,89	0,42
1019,249	0,4
1019,607	0,42
1019,966	0,39
1020,324	0,41
1020,682	0,4
1021,041	0,42
1021,399	0,38
1021,757	0,4
1022,115	0,39
1022,473	0,42
1022,831	0,41
1023,189	0,4
1023,547	0,4
1023,905	0,4
1024,263	0,41
1024,62	0,42
1024,978	0,41
1025,335	0,42
1025,693	0,42
1026,05	0,37
1026,408	0,38
1026,765	0,41
1027,122	0,37
1027,479	0,45
1027,837	0,41
1028,194	0,41
1028,551	0,42
1028,908	0,42
1029,264	0,41
1029,621	0,4
1029,978	0,41
1030,335	0,38
1030,691	0,42
1031,048	0,39
1031,404	0,39
1031,761	0,42
1032,117	0,37
1032,473	0,45
1032,83	0,4
1033,186	0,4
1033,542	0,36
1033,898	0,39
1034,254	0,39
1034,61	0,39
1034,966	0,39
