Data from Absorbance__28__14-47-09-481.txt Node

Date: Wed Apr 28 14:47:09 CEST 2021
User: thoma
Spectrometer: FLMS05507
Trigger mode: 0
Integration Time (sec): 6,930000E-3
Scans to average: 200
Electric dark correction enabled: true
Nonlinearity correction enabled: false
Boxcar width: 0
XAxis mode: Wavelengths
Number of Pixels in Spectrum: 2048
>>>>>Begin Spectral Data<<<<<
188,96	0,61
189,424	0,61
189,887	0,61
190,351	0,68
190,815	0,27
191,279	-0
191,742	-0,85
192,206	-0,83
192,669	-0,48
193,133	-0
193,596	-0
194,06	-1,37
194,523	2,38
194,987	-0
195,45	-0
195,913	-0
196,376	-0,19
196,84	-0,57
197,303	1,3
197,766	1,64
198,229	-1,09
198,692	-0,24
199,155	0,39
199,618	2,5
200,081	2,65
200,543	2,7
201,006	2,67
201,469	2,69
201,932	2,71
202,394	2,7
202,857	2,72
203,32	2,73
203,782	2,74
204,245	2,76
204,707	2,71
205,169	2,74
205,632	2,76
206,094	2,77
206,556	2,82
207,019	2,76
207,481	2,77
207,943	2,78
208,405	2,82
208,867	2,82
209,329	2,81
209,791	2,83
210,253	2,85
210,715	2,86
211,177	2,9
211,639	2,85
212,1	2,91
212,562	2,86
213,024	2,91
213,485	2,88
213,947	2,88
214,408	2,89
214,87	2,9
215,331	2,91
215,793	2,88
216,254	2,94
216,715	2,9
217,177	2,91
217,638	2,93
218,099	2,89
218,56	2,95
219,021	2,93
219,482	2,89
219,944	2,96
220,404	2,91
220,865	2,96
221,326	2,91
221,787	2,88
222,248	2,9
222,709	2,96
223,169	2,93
223,63	2,91
224,091	2,92
224,551	2,95
225,012	2,94
225,472	2,9
225,933	2,95
226,393	2,93
226,854	2,9
227,314	2,98
227,774	2,89
228,234	2,97
228,695	2,94
229,155	2,92
229,615	2,97
230,075	2,98
230,535	2,94
230,995	2,94
231,455	2,95
231,915	2,97
232,375	2,97
232,834	2,94
233,294	2,94
233,754	2,95
234,214	2,94
234,673	2,92
235,133	2,9
235,592	2,96
236,052	2,94
236,511	2,97
236,971	2,91
237,43	2,92
237,889	2,96
238,349	2,94
238,808	2,98
239,267	2,96
239,726	2,89
240,185	2,89
240,644	2,92
241,103	2,94
241,562	2,95
242,021	2,9
242,48	2,89
242,939	2,89
243,398	2,91
243,857	2,94
244,315	2,9
244,774	2,93
245,233	2,91
245,691	2,92
246,15	2,87
246,608	2,92
247,067	2,92
247,525	2,87
247,983	2,89
248,442	2,89
248,9	2,86
249,358	2,86
249,816	2,9
250,274	2,92
250,733	2,93
251,191	2,9
251,649	2,82
252,107	2,87
252,564	2,91
253,022	2,9
253,48	2,84
253,938	2,87
254,396	2,89
254,853	2,84
255,311	2,89
255,769	2,8
256,226	2,84
256,684	2,84
257,141	2,88
257,599	2,84
258,056	2,83
258,513	2,83
258,971	2,8
259,428	2,82
259,885	2,83
260,342	2,81
260,799	2,79
261,256	2,78
261,714	2,82
262,171	2,8
262,627	2,79
263,084	2,81
263,541	2,79
263,998	2,79
264,455	2,75
264,912	2,78
265,368	2,8
265,825	2,72
266,281	2,73
266,738	2,77
267,194	2,78
267,651	2,7
268,107	2,69
268,564	2,78
269,02	2,74
269,476	2,74
269,933	2,73
270,389	2,67
270,845	2,73
271,301	2,7
271,757	2,67
272,213	2,64
272,669	2,71
273,125	2,67
273,581	2,64
274,037	2,65
274,492	2,67
274,948	2,62
275,404	2,64
275,86	2,68
276,315	2,62
276,771	2,63
277,226	2,67
277,682	2,65
278,137	2,67
278,593	2,63
279,048	2,62
279,503	2,58
279,958	2,6
280,414	2,58
280,869	2,57
281,324	2,57
281,779	2,56
282,234	2,55
282,689	2,58
283,144	2,52
283,599	2,47
284,054	2,55
284,508	2,54
284,963	2,49
285,418	2,49
285,873	2,45
286,327	2,41
286,782	2,42
287,236	2,39
287,691	2,4
288,145	2,33
288,6	2,27
289,054	2,24
289,508	2,2
289,963	2,15
290,417	2,09
290,871	2,05
291,325	1,98
291,779	1,94
292,233	1,89
292,687	1,82
293,141	1,77
293,595	1,72
294,049	1,67
294,503	1,62
294,957	1,56
295,41	1,5
295,864	1,46
296,318	1,41
296,771	1,36
297,225	1,32
297,678	1,27
298,132	1,23
298,585	1,19
299,039	1,15
299,492	1,11
299,945	1,07
300,398	1,03
300,852	1
301,305	0,96
301,758	0,93
302,211	0,9
302,664	0,87
303,117	0,84
303,57	0,81
304,023	0,78
304,476	0,76
304,928	0,73
305,381	0,71
305,834	0,69
306,286	0,67
306,739	0,65
307,192	0,63
307,644	0,61
308,097	0,59
308,549	0,57
309,001	0,55
309,454	0,54
309,906	0,52
310,358	0,5
310,81	0,49
311,263	0,48
311,715	0,46
312,167	0,45
312,619	0,44
313,071	0,43
313,523	0,42
313,975	0,41
314,426	0,4
314,878	0,39
315,33	0,38
315,782	0,37
316,233	0,36
316,685	0,35
317,136	0,35
317,588	0,34
318,039	0,34
318,491	0,33
318,942	0,32
319,393	0,31
319,845	0,31
320,296	0,3
320,747	0,3
321,198	0,29
321,649	0,28
322,101	0,27
322,552	0,27
323,003	0,26
323,453	0,26
323,904	0,26
324,355	0,25
324,806	0,25
325,257	0,25
325,707	0,24
326,158	0,24
326,609	0,24
327,059	0,23
327,51	0,23
327,96	0,23
328,411	0,23
328,861	0,22
329,311	0,22
329,762	0,22
330,212	0,22
330,662	0,21
331,112	0,21
331,562	0,21
332,012	0,21
332,462	0,21
332,912	0,2
333,362	0,2
333,812	0,2
334,262	0,2
334,712	0,2
335,161	0,19
335,611	0,19
336,061	0,19
336,51	0,19
336,96	0,19
337,409	0,19
337,859	0,19
338,308	0,18
338,758	0,18
339,207	0,18
339,656	0,18
340,105	0,18
340,555	0,18
341,004	0,18
341,453	0,18
341,902	0,17
342,351	0,17
342,8	0,17
343,249	0,17
343,698	0,17
344,146	0,17
344,595	0,17
345,044	0,17
345,493	0,17
345,941	0,17
346,39	0,17
346,838	0,17
347,287	0,17
347,735	0,17
348,184	0,17
348,632	0,17
349,08	0,17
349,529	0,16
349,977	0,16
350,425	0,16
350,873	0,16
351,321	0,16
351,769	0,16
352,217	0,16
352,665	0,16
353,113	0,16
353,561	0,16
354,009	0,16
354,456	0,16
354,904	0,16
355,352	0,16
355,799	0,16
356,247	0,16
356,694	0,16
357,142	0,16
357,589	0,16
358,037	0,16
358,484	0,16
358,931	0,16
359,379	0,16
359,826	0,16
360,273	0,16
360,72	0,16
361,167	0,16
361,614	0,16
362,061	0,15
362,508	0,16
362,955	0,15
363,402	0,16
363,848	0,15
364,295	0,15
364,742	0,15
365,188	0,16
365,635	0,15
366,082	0,15
366,528	0,15
366,975	0,15
367,421	0,15
367,867	0,15
368,314	0,15
368,76	0,15
369,206	0,15
369,652	0,15
370,098	0,15
370,545	0,15
370,991	0,15
371,437	0,15
371,882	0,15
372,328	0,15
372,774	0,15
373,22	0,15
373,666	0,15
374,111	0,15
374,557	0,15
375,003	0,15
375,448	0,15
375,894	0,15
376,339	0,15
376,785	0,15
377,23	0,15
377,675	0,15
378,121	0,15
378,566	0,15
379,011	0,15
379,456	0,15
379,901	0,15
380,346	0,15
380,791	0,15
381,236	0,15
381,681	0,15
382,126	0,15
382,571	0,15
383,016	0,15
383,461	0,15
383,905	0,15
384,35	0,15
384,794	0,15
385,239	0,15
385,683	0,15
386,128	0,15
386,572	0,15
387,017	0,15
387,461	0,15
387,905	0,15
388,349	0,15
388,794	0,15
389,238	0,15
389,682	0,15
390,126	0,15
390,57	0,15
391,014	0,15
391,457	0,15
391,901	0,15
392,345	0,15
392,789	0,15
393,233	0,15
393,676	0,15
394,12	0,15
394,563	0,15
395,007	0,15
395,45	0,15
395,894	0,15
396,337	0,15
396,78	0,15
397,224	0,15
397,667	0,15
398,11	0,15
398,553	0,15
398,996	0,15
399,439	0,15
399,882	0,15
400,325	0,15
400,768	0,15
401,211	0,15
401,654	0,15
402,096	0,15
402,539	0,15
402,982	0,15
403,424	0,15
403,867	0,15
404,309	0,15
404,752	0,15
405,194	0,15
405,637	0,15
406,079	0,15
406,521	0,15
406,963	0,15
407,406	0,15
407,848	0,15
408,29	0,15
408,732	0,15
409,174	0,15
409,616	0,15
410,058	0,15
410,499	0,15
410,941	0,15
411,383	0,15
411,825	0,15
412,266	0,15
412,708	0,15
413,15	0,15
413,591	0,15
414,033	0,15
414,474	0,15
414,915	0,15
415,357	0,15
415,798	0,15
416,239	0,15
416,68	0,15
417,121	0,15
417,563	0,15
418,004	0,15
418,445	0,15
418,885	0,15
419,326	0,15
419,767	0,15
420,208	0,15
420,649	0,15
421,089	0,15
421,53	0,15
421,971	0,15
422,411	0,15
422,852	0,15
423,292	0,15
423,733	0,15
424,173	0,15
424,613	0,15
425,054	0,15
425,494	0,15
425,934	0,15
426,374	0,15
426,814	0,15
427,254	0,15
427,694	0,16
428,134	0,15
428,574	0,15
429,014	0,15
429,454	0,15
429,893	0,15
430,333	0,15
430,773	0,15
431,212	0,15
431,652	0,15
432,091	0,15
432,531	0,15
432,97	0,16
433,41	0,16
433,849	0,16
434,288	0,16
434,727	0,16
435,167	0,16
435,606	0,16
436,045	0,16
436,484	0,16
436,923	0,16
437,362	0,16
437,801	0,16
438,239	0,16
438,678	0,16
439,117	0,16
439,556	0,16
439,994	0,16
440,433	0,16
440,871	0,16
441,31	0,16
441,748	0,16
442,187	0,16
442,625	0,16
443,063	0,16
443,502	0,16
443,94	0,16
444,378	0,16
444,816	0,16
445,254	0,16
445,692	0,16
446,13	0,16
446,568	0,16
447,006	0,16
447,444	0,16
447,881	0,16
448,319	0,16
448,757	0,16
449,194	0,16
449,632	0,16
450,07	0,16
450,507	0,16
450,944	0,16
451,382	0,16
451,819	0,16
452,256	0,16
452,694	0,16
453,131	0,16
453,568	0,16
454,005	0,16
454,442	0,16
454,879	0,16
455,316	0,16
455,753	0,16
456,19	0,16
456,627	0,16
457,063	0,16
457,5	0,16
457,937	0,16
458,373	0,16
458,81	0,16
459,246	0,16
459,683	0,16
460,119	0,16
460,556	0,16
460,992	0,16
461,428	0,16
461,864	0,16
462,301	0,16
462,737	0,16
463,173	0,16
463,609	0,17
464,045	0,17
464,481	0,17
464,917	0,17
465,352	0,17
465,788	0,17
466,224	0,17
466,66	0,16
467,095	0,17
467,531	0,17
467,966	0,17
468,402	0,17
468,837	0,17
469,273	0,17
469,708	0,17
470,143	0,17
470,578	0,17
471,014	0,17
471,449	0,17
471,884	0,17
472,319	0,17
472,754	0,17
473,189	0,17
473,624	0,17
474,059	0,17
474,493	0,17
474,928	0,17
475,363	0,17
475,797	0,17
476,232	0,17
476,667	0,17
477,101	0,17
477,536	0,17
477,97	0,17
478,404	0,17
478,839	0,17
479,273	0,17
479,707	0,17
480,141	0,17
480,575	0,17
481,009	0,18
481,444	0,18
481,877	0,17
482,311	0,17
482,745	0,17
483,179	0,17
483,613	0,17
484,047	0,17
484,48	0,18
484,914	0,17
485,347	0,17
485,781	0,17
486,214	0,17
486,648	0,17
487,081	0,17
487,515	0,17
487,948	0,17
488,381	0,17
488,814	0,18
489,247	0,18
489,68	0,18
490,113	0,18
490,546	0,18
490,979	0,18
491,412	0,18
491,845	0,18
492,278	0,18
492,711	0,18
493,143	0,18
493,576	0,18
494,009	0,18
494,441	0,18
494,874	0,18
495,306	0,18
495,738	0,18
496,171	0,18
496,603	0,18
497,035	0,18
497,467	0,18
497,9	0,18
498,332	0,18
498,764	0,18
499,196	0,18
499,628	0,18
500,06	0,18
500,491	0,18
500,923	0,18
501,355	0,18
501,787	0,18
502,218	0,18
502,65	0,18
503,081	0,18
503,513	0,18
503,944	0,18
504,376	0,18
504,807	0,18
505,238	0,18
505,67	0,18
506,101	0,18
506,532	0,18
506,963	0,18
507,394	0,18
507,825	0,19
508,256	0,19
508,687	0,19
509,118	0,18
509,549	0,19
509,979	0,19
510,41	0,19
510,841	0,19
511,271	0,19
511,702	0,19
512,132	0,19
512,563	0,19
512,993	0,19
513,424	0,19
513,854	0,19
514,284	0,19
514,714	0,19
515,145	0,19
515,575	0,19
516,005	0,19
516,435	0,19
516,865	0,19
517,295	0,19
517,724	0,19
518,154	0,19
518,584	0,19
519,014	0,19
519,443	0,19
519,873	0,19
520,303	0,19
520,732	0,19
521,161	0,19
521,591	0,19
522,02	0,19
522,45	0,19
522,879	0,19
523,308	0,19
523,737	0,19
524,166	0,19
524,595	0,19
525,024	0,2
525,453	0,2
525,882	0,2
526,311	0,2
526,74	0,2
527,169	0,2
527,597	0,2
528,026	0,2
528,455	0,2
528,883	0,2
529,312	0,2
529,74	0,2
530,168	0,2
530,597	0,2
531,025	0,2
531,453	0,2
531,882	0,2
532,31	0,2
532,738	0,2
533,166	0,2
533,594	0,2
534,022	0,2
534,45	0,2
534,878	0,2
535,305	0,2
535,733	0,2
536,161	0,2
536,588	0,2
537,016	0,2
537,444	0,2
537,871	0,21
538,299	0,21
538,726	0,21
539,153	0,21
539,581	0,21
540,008	0,21
540,435	0,21
540,862	0,21
541,289	0,21
541,716	0,21
542,143	0,21
542,57	0,21
542,997	0,21
543,424	0,21
543,851	0,21
544,277	0,21
544,704	0,21
545,131	0,21
545,557	0,21
545,984	0,21
546,41	0,21
546,837	0,21
547,263	0,21
547,69	0,21
548,116	0,21
548,542	0,22
548,968	0,22
549,394	0,22
549,82	0,22
550,246	0,22
550,672	0,22
551,098	0,22
551,524	0,22
551,95	0,22
552,376	0,22
552,802	0,22
553,227	0,22
553,653	0,22
554,078	0,22
554,504	0,22
554,929	0,22
555,355	0,22
555,78	0,22
556,206	0,22
556,631	0,23
557,056	0,23
557,481	0,23
557,906	0,23
558,331	0,23
558,756	0,23
559,181	0,23
559,606	0,23
560,031	0,23
560,456	0,23
560,881	0,23
561,305	0,23
561,73	0,23
562,155	0,23
562,579	0,23
563,004	0,24
563,428	0,24
563,853	0,24
564,277	0,24
564,701	0,24
565,126	0,24
565,55	0,24
565,974	0,24
566,398	0,24
566,822	0,24
567,246	0,24
567,67	0,24
568,094	0,24
568,518	0,24
568,941	0,24
569,365	0,24
569,789	0,24
570,213	0,25
570,636	0,25
571,06	0,25
571,483	0,25
571,907	0,25
572,33	0,25
572,753	0,25
573,177	0,25
573,6	0,25
574,023	0,25
574,446	0,25
574,869	0,25
575,292	0,25
575,715	0,26
576,138	0,26
576,561	0,26
576,984	0,26
577,407	0,26
577,829	0,26
578,252	0,26
578,675	0,26
579,097	0,26
579,52	0,26
579,942	0,27
580,364	0,27
580,787	0,27
581,209	0,27
581,631	0,27
582,054	0,27
582,476	0,27
582,898	0,27
583,32	0,27
583,742	0,28
584,164	0,28
584,586	0,28
585,008	0,28
585,429	0,28
585,851	0,28
586,273	0,28
586,694	0,28
587,116	0,29
587,538	0,29
587,959	0,29
588,38	0,29
588,802	0,29
589,223	0,3
589,644	0,3
590,066	0,3
590,487	0,3
590,908	0,3
591,329	0,3
591,75	0,31
592,171	0,31
592,592	0,31
593,013	0,31
593,434	0,31
593,854	0,31
594,275	0,31
594,696	0,32
595,116	0,32
595,537	0,32
595,957	0,32
596,378	0,33
596,798	0,33
597,218	0,33
597,639	0,33
598,059	0,33
598,479	0,33
598,899	0,33
599,319	0,33
599,739	0,33
600,159	0,34
600,579	0,34
600,999	0,34
601,419	0,34
601,839	0,34
602,259	0,35
602,678	0,35
603,098	0,35
603,517	0,35
603,937	0,35
604,356	0,35
604,776	0,36
605,195	0,36
605,614	0,36
606,034	0,36
606,453	0,36
606,872	0,37
607,291	0,37
607,71	0,37
608,129	0,37
608,548	0,38
608,967	0,38
609,386	0,38
609,805	0,38
610,223	0,39
610,642	0,39
611,061	0,39
611,479	0,39
611,898	0,4
612,316	0,4
612,735	0,4
613,153	0,4
613,571	0,41
613,99	0,41
614,408	0,41
614,826	0,41
615,244	0,42
615,662	0,42
616,08	0,42
616,498	0,42
616,916	0,43
617,334	0,43
617,752	0,43
618,169	0,44
618,587	0,44
619,005	0,44
619,422	0,44
619,84	0,45
620,257	0,45
620,675	0,45
621,092	0,46
621,509	0,46
621,927	0,46
622,344	0,47
622,761	0,47
623,178	0,47
623,595	0,48
624,012	0,48
624,429	0,48
624,846	0,49
625,263	0,49
625,68	0,49
626,097	0,49
626,513	0,5
626,93	0,5
627,346	0,5
627,763	0,51
628,179	0,51
628,596	0,51
629,012	0,52
629,429	0,52
629,845	0,52
630,261	0,53
630,677	0,53
631,093	0,53
631,509	0,54
631,925	0,54
632,341	0,55
632,757	0,55
633,173	0,55
633,589	0,56
634,005	0,56
634,42	0,57
634,836	0,57
635,252	0,57
635,667	0,58
636,083	0,58
636,498	0,58
636,913	0,59
637,329	0,59
637,744	0,59
638,159	0,6
638,574	0,6
638,99	0,61
639,405	0,61
639,82	0,61
640,235	0,62
640,65	0,62
641,064	0,63
641,479	0,63
641,894	0,64
642,309	0,64
642,723	0,64
643,138	0,65
643,552	0,65
643,967	0,66
644,381	0,66
644,796	0,66
645,21	0,67
645,624	0,67
646,038	0,68
646,453	0,68
646,867	0,69
647,281	0,69
647,695	0,7
648,109	0,7
648,523	0,7
648,936	0,71
649,35	0,71
649,764	0,72
650,178	0,72
650,591	0,73
651,005	0,73
651,418	0,74
651,832	0,74
652,245	0,75
652,659	0,75
653,072	0,76
653,485	0,76
653,898	0,76
654,312	0,77
654,725	0,78
655,138	0,78
655,551	0,78
655,964	0,79
656,377	0,79
656,789	0,8
657,202	0,8
657,615	0,81
658,028	0,81
658,44	0,82
658,853	0,83
659,265	0,83
659,678	0,84
660,09	0,84
660,503	0,84
660,915	0,85
661,327	0,86
661,739	0,86
662,152	0,87
662,564	0,87
662,976	0,88
663,388	0,88
663,8	0,89
664,211	0,89
664,623	0,9
665,035	0,9
665,447	0,91
665,858	0,92
666,27	0,92
666,682	0,93
667,093	0,93
667,505	0,94
667,916	0,94
668,327	0,95
668,739	0,95
669,15	0,96
669,561	0,97
669,972	0,97
670,383	0,98
670,794	0,98
671,205	0,99
671,616	1
672,027	1
672,438	1
672,849	1,01
673,259	1,02
673,67	1,02
674,08	1,03
674,491	1,03
674,901	1,04
675,312	1,05
675,722	1,05
676,133	1,06
676,543	1,06
676,953	1,07
677,363	1,08
677,773	1,08
678,183	1,09
678,593	1,1
679,003	1,1
679,413	1,11
679,823	1,11
680,233	1,12
680,643	1,12
681,052	1,13
681,462	1,14
681,872	1,14
682,281	1,15
682,691	1,15
683,1	1,16
683,509	1,17
683,919	1,17
684,328	1,18
684,737	1,18
685,146	1,19
685,555	1,2
685,964	1,2
686,373	1,21
686,782	1,21
687,191	1,22
687,6	1,23
688,009	1,23
688,417	1,24
688,826	1,25
689,235	1,25
689,643	1,26
690,052	1,27
690,46	1,27
690,869	1,28
691,277	1,28
691,685	1,29
692,093	1,29
692,502	1,3
692,91	1,31
693,318	1,31
693,726	1,32
694,134	1,33
694,542	1,33
694,949	1,34
695,357	1,35
695,765	1,35
696,173	1,36
696,58	1,36
696,988	1,37
697,395	1,38
697,803	1,38
698,21	1,39
698,618	1,39
699,025	1,4
699,432	1,41
699,839	1,42
700,247	1,42
700,654	1,43
701,061	1,43
701,468	1,44
701,875	1,45
702,281	1,45
702,688	1,46
703,095	1,46
703,502	1,47
703,908	1,48
704,315	1,48
704,722	1,49
705,128	1,5
705,534	1,5
705,941	1,51
706,347	1,52
706,753	1,52
707,16	1,53
707,566	1,53
707,972	1,54
708,378	1,54
708,784	1,55
709,19	1,56
709,596	1,56
710,002	1,57
710,407	1,58
710,813	1,58
711,219	1,59
711,625	1,59
712,03	1,6
712,436	1,61
712,841	1,61
713,246	1,61
713,652	1,62
714,057	1,63
714,462	1,63
714,868	1,64
715,273	1,64
715,678	1,65
716,083	1,66
716,488	1,67
716,893	1,67
717,297	1,68
717,702	1,68
718,107	1,69
718,512	1,69
718,916	1,7
719,321	1,71
719,725	1,71
720,13	1,71
720,534	1,72
720,939	1,73
721,343	1,73
721,747	1,74
722,151	1,75
722,556	1,75
722,96	1,76
723,364	1,76
723,768	1,76
724,172	1,77
724,576	1,78
724,979	1,78
725,383	1,79
725,787	1,8
726,19	1,81
726,594	1,81
726,998	1,82
727,401	1,83
727,805	1,82
728,208	1,83
728,611	1,83
729,014	1,84
729,418	1,84
729,821	1,85
730,224	1,86
730,627	1,86
731,03	1,87
731,433	1,88
731,836	1,88
732,239	1,89
732,641	1,88
733,044	1,9
733,447	1,9
733,849	1,91
734,252	1,92
734,654	1,92
735,057	1,93
735,459	1,94
735,862	1,94
736,264	1,94
736,666	1,93
737,068	1,94
737,47	1,95
737,872	1,95
738,274	1,95
738,676	1,95
739,078	1,96
739,48	1,97
739,882	1,97
740,284	1,98
740,685	1,98
741,087	2
741,488	2
741,89	2
742,291	2,01
742,693	2,01
743,094	2,01
743,495	2,01
743,897	2,01
744,298	2,02
744,699	2,03
745,1	2,04
745,501	2,04
745,902	2,03
746,303	2,06
746,704	2,06
747,105	2,05
747,505	2,05
747,906	2,06
748,307	2,04
748,707	2,06
749,108	2,08
749,508	2,07
749,908	2,09
750,309	2,09
750,709	2,09
751,109	2,08
751,51	2,08
751,91	2,09
752,31	2,09
752,71	2,1
753,11	2,11
753,51	2,11
753,909	2,11
754,309	2,13
754,709	2,12
755,109	2,12
755,508	2,12
755,908	2,15
756,307	2,16
756,707	2,14
757,106	2,14
757,505	2,15
757,905	2,16
758,304	2,14
758,703	2,17
759,102	2,16
759,501	2,16
759,9	2,16
760,299	2,17
760,698	2,17
761,097	2,16
761,496	2,19
761,895	2,17
762,293	2,16
762,692	2,19
763,09	2,19
763,489	2,17
763,887	2,2
764,286	2,18
764,684	2,19
765,082	2,2
765,481	2,21
765,879	2,19
766,277	2,2
766,675	2,18
767,073	2,2
767,471	2,2
767,869	2,18
768,267	2,21
768,664	2,21
769,062	2,23
769,46	2,21
769,857	2,2
770,255	2,22
770,653	2,22
771,05	2,24
771,447	2,24
771,845	2,22
772,242	2,23
772,639	2,23
773,036	2,23
773,433	2,23
773,831	2,23
774,228	2,21
774,624	2,24
775,021	2,28
775,418	2,23
775,815	2,23
776,212	2,26
776,608	2,25
777,005	2,27
777,401	2,26
777,798	2,26
778,194	2,23
778,591	2,25
778,987	2,24
779,383	2,22
779,78	2,25
780,176	2,25
780,572	2,26
780,968	2,25
781,364	2,26
781,76	2,27
782,156	2,25
782,551	2,29
782,947	2,24
783,343	2,27
783,739	2,28
784,134	2,27
784,53	2,28
784,925	2,27
785,321	2,29
785,716	2,26
786,111	2,28
786,507	2,27
786,902	2,27
787,297	2,28
787,692	2,28
788,087	2,26
788,482	2,27
788,877	2,27
789,272	2,27
789,667	2,26
790,061	2,27
790,456	2,29
790,851	2,27
791,245	2,3
791,64	2,26
792,034	2,26
792,429	2,23
792,823	2,29
793,217	2,27
793,612	2,29
794,006	2,3
794,4	2,27
794,794	2,28
795,188	2,27
795,582	2,26
795,976	2,27
796,37	2,3
796,763	2,28
797,157	2,29
797,551	2,26
797,944	2,31
798,338	2,27
798,731	2,27
799,125	2,26
799,518	2,26
799,912	2,33
800,305	2,26
800,698	2,27
801,091	2,25
801,484	2,29
801,877	2,28
802,27	2,27
802,663	2,26
803,056	2,28
803,449	2,27
803,842	2,28
804,235	2,28
804,627	2,29
805,02	2,22
805,412	2,27
805,805	2,3
806,197	2,28
806,59	2,28
806,982	2,29
807,374	2,27
807,766	2,28
808,159	2,3
808,551	2,32
808,943	2,32
809,335	2,3
809,727	2,27
810,118	2,24
810,51	2,21
810,902	2,28
811,294	2,28
811,685	2,25
812,077	2,23
812,468	2,29
812,86	2,28
813,251	2,24
813,643	2,23
814,034	2,29
814,425	2,29
814,816	2,31
815,207	2,26
815,598	2,24
815,989	2,28
816,38	2,25
816,771	2,27
817,162	2,25
817,553	2,23
817,944	2,25
818,334	2,26
818,725	2,22
819,115	2,26
819,506	2,26
819,896	2,24
820,287	2,27
820,677	2,23
821,067	2,27
821,457	2,21
821,848	2,23
822,238	2,26
822,628	2,22
823,018	2,23
823,408	2,24
823,797	2,25
824,187	2,21
824,577	2,21
824,967	2,27
825,356	2,18
825,746	2,25
826,135	2,22
826,525	2,24
826,914	2,2
827,304	2,21
827,693	2,16
828,082	2,25
828,471	2,21
828,86	2,23
829,249	2,23
829,638	2,23
830,027	2,24
830,416	2,2
830,805	2,27
831,194	2,23
831,582	2,19
831,971	2,19
832,36	2,19
832,748	2,21
833,137	2,21
833,525	2,23
833,914	2,2
834,302	2,22
834,69	2,23
835,078	2,21
835,466	2,24
835,854	2,23
836,243	2,18
836,63	2,17
837,018	2,2
837,406	2,2
837,794	2,21
838,182	2,2
838,569	2,17
838,957	2,17
839,345	2,16
839,732	2,16
840,12	2,16
840,507	2,16
840,894	2,19
841,282	2,19
841,669	2,14
842,056	2,17
842,443	2,21
842,83	2,21
843,217	2,18
843,604	2,17
843,991	2,16
844,378	2,16
844,764	2,16
845,151	2,13
845,538	2,17
845,924	2,15
846,311	2,18
846,697	2,13
847,084	2,17
847,47	2,16
847,856	2,12
848,242	2,14
848,629	2,15
849,015	2,12
849,401	2,17
849,787	2,15
850,173	2,14
850,559	2,13
850,944	2,17
851,33	2,12
851,716	2,15
852,102	2,17
852,487	2,1
852,873	2,16
853,258	2,13
853,644	2,09
854,029	2,12
854,414	2,17
854,799	2,14
855,185	2,13
855,57	2,16
855,955	2,12
856,34	2,12
856,725	2,14
857,11	2,16
857,495	2,09
857,879	2,1
858,264	2,14
858,649	2,16
859,033	2,15
859,418	2,11
859,802	2,1
860,187	2,06
860,571	2,12
860,955	2,11
861,34	2,13
861,724	2,06
862,108	2,08
862,492	2,1
862,876	2,08
863,26	2,1
863,644	2,07
864,028	2,08
864,412	2,09
864,795	2,07
865,179	2,08
865,563	2,09
865,946	2,07
866,33	2,05
866,713	2,05
867,097	2,07
867,48	2,04
867,863	2,05
868,246	2,05
868,629	2,04
869,013	2,08
869,396	2,03
869,779	2,04
870,161	1,99
870,544	2,03
870,927	2,05
871,31	2,09
871,693	2,03
872,075	2,03
872,458	2,07
872,84	2,04
873,223	2,03
873,605	2,06
873,987	2,04
874,37	2,09
874,752	2,03
875,134	2,02
875,516	2
875,898	2
876,28	2,01
876,662	2
877,044	2,03
877,426	2,06
877,807	1,97
878,189	2,08
878,571	2,02
878,952	2,02
879,334	1,97
879,715	2,02
880,097	2,03
880,478	1,97
880,859	1,99
881,24	2,02
881,622	1,96
882,003	1,97
882,384	1,98
882,765	1,99
883,146	1,99
883,526	2
883,907	1,96
884,288	2,02
884,669	1,94
885,049	1,95
885,43	2
885,81	1,96
886,191	1,98
886,571	1,99
886,952	2,03
887,332	2,02
887,712	1,99
888,092	1,99
888,472	2,02
888,852	1,96
889,232	1,98
889,612	2,04
889,992	1,98
890,372	1,97
890,752	1,99
891,131	1,99
891,511	1,99
891,89	1,99
892,27	2,03
892,649	1,99
893,029	2
893,408	1,97
893,787	1,97
894,167	1,99
894,546	1,98
894,925	1,96
895,304	1,93
895,683	1,99
896,062	1,96
896,441	1,96
896,819	1,95
897,198	1,96
897,577	1,97
897,955	1,94
898,334	1,95
898,712	1,92
899,091	1,91
899,469	1,93
899,848	1,92
900,226	1,92
900,604	1,94
900,982	1,93
901,36	1,92
901,738	1,91
902,116	1,92
902,494	1,89
902,872	1,94
903,25	1,92
903,628	1,9
904,005	1,93
904,383	1,94
904,76	1,91
905,138	1,96
905,515	1,92
905,893	1,95
906,27	1,89
906,647	1,93
907,024	1,89
907,402	1,88
907,779	1,88
908,156	1,92
908,533	1,85
908,91	1,88
909,286	1,85
909,663	1,88
910,04	1,91
910,417	1,86
910,793	1,87
911,17	1,87
911,546	1,86
911,923	1,86
912,299	1,89
912,675	1,82
913,051	1,87
913,428	1,85
913,804	1,87
914,18	1,8
914,556	1,81
914,932	1,83
915,308	1,81
915,683	1,77
916,059	1,79
916,435	1,85
916,811	1,84
917,186	1,84
917,562	1,84
917,937	1,82
918,313	1,85
918,688	1,8
919,063	1,78
919,438	1,85
919,814	1,82
920,189	1,84
920,564	1,87
920,939	1,83
921,314	1,8
921,689	1,82
922,063	1,81
922,438	1,81
922,813	1,83
923,187	1,77
923,562	1,79
923,936	1,83
924,311	1,75
924,685	1,75
925,06	1,84
925,434	1,75
925,808	1,8
926,182	1,75
926,556	1,79
926,93	1,78
927,304	1,77
927,678	1,74
928,052	1,72
928,426	1,74
928,8	1,77
929,173	1,74
929,547	1,77
929,92	1,72
930,294	1,74
930,667	1,74
931,041	1,78
931,414	1,74
931,787	1,68
932,161	1,72
932,534	1,73
932,907	1,69
933,28	1,68
933,653	1,74
934,026	1,81
934,398	1,74
934,771	1,8
935,144	1,79
935,517	1,68
935,889	1,72
936,262	1,71
936,634	1,68
937,007	1,71
937,379	1,68
937,751	1,71
938,123	1,68
938,496	1,72
938,868	1,66
939,24	1,82
939,612	1,64
939,984	1,63
940,355	1,68
940,727	1,61
941,099	1,65
941,471	1,67
941,842	1,66
942,214	1,63
942,585	1,59
942,957	1,61
943,328	1,56
943,7	1,77
944,071	1,63
944,442	1,61
944,813	1,61
945,184	1,64
945,555	1,59
945,926	1,63
946,297	1,62
946,668	1,66
947,039	1,62
947,409	1,51
947,78	1,63
948,151	1,6
948,521	1,69
948,892	1,61
949,262	1,66
949,633	1,56
950,003	1,62
950,373	1,55
950,743	1,54
951,113	1,55
951,483	1,54
951,853	1,54
952,223	1,46
952,593	1,56
952,963	1,48
953,333	1,48
953,702	1,48
954,072	1,45
954,442	1,47
954,811	1,58
955,181	1,51
955,55	1,53
955,919	1,5
956,289	1,45
956,658	1,47
957,027	1,45
957,396	1,44
957,765	1,49
958,134	1,51
958,503	1,36
958,872	1,42
959,24	1,47
959,609	1,38
959,978	1,47
960,346	1,4
960,715	1,39
961,083	1,34
961,452	1,43
961,82	1,67
962,188	1,52
962,557	1,44
962,925	1,39
963,293	1,28
963,661	1,49
964,029	1,43
964,397	1,37
964,765	1,57
965,133	1,46
965,5	1,32
965,868	1,32
966,236	1,36
966,603	1,33
966,971	1,45
967,338	1,26
967,706	1,36
968,073	1,32
968,44	1,24
968,807	1,39
969,174	1,4
969,542	1,32
969,909	1,26
970,275	1,33
970,642	1,33
971,009	1,3
971,376	1,31
971,743	1,44
972,109	1,28
972,476	1,16
972,842	1,19
973,209	1,22
973,575	1,38
973,942	1,36
974,308	1,22
974,674	1,34
975,04	1,36
975,406	1,2
975,772	1,23
976,138	1,22
976,504	1,23
976,87	1,42
977,236	1,42
977,602	1,12
977,967	1,3
978,333	1,24
978,698	1,33
979,064	1,32
979,429	1,37
979,795	1,27
980,16	1,24
980,525	1,23
980,89	1,33
981,255	1,33
981,621	1,19
981,986	1,3
982,35	1,28
982,715	1,26
983,08	1,31
983,445	1,35
983,81	1,22
984,174	1,15
984,539	1,21
984,903	1,05
985,268	1,43
985,632	1,31
985,996	1,38
986,361	1,3
986,725	1,14
987,089	1,3
987,453	1,12
987,817	1,13
988,181	1,24
988,545	1,15
988,909	1,23
989,272	1,2
989,636	1,17
990	1,34
990,363	1,15
990,727	1,11
991,09	1,09
991,454	1,27
991,817	1,44
992,18	1,26
992,543	1,06
992,907	1,25
993,27	1,15
993,633	1,12
993,996	1,14
994,359	1,13
994,721	1,33
995,084	1,17
995,447	1,07
995,81	1,12
996,172	1,31
996,535	1,17
996,897	1,15
997,259	1,09
997,622	1,04
997,984	1,17
998,346	1,16
998,708	1,08
999,071	1,38
999,433	1,59
999,795	1,24
1000,156	1,36
1000,518	1,13
1000,88	1,2
1001,242	1,08
1001,603	1,1
1001,965	1,02
1002,327	1,13
1002,688	1,16
1003,049	1,04
1003,411	1,07
1003,772	1,26
1004,133	1,5
1004,495	1,16
1004,856	1,21
1005,217	1,09
1005,578	1,24
1005,939	1,24
1006,299	1,21
1006,66	1,15
1007,021	1,18
1007,382	1,26
1007,742	1,05
1008,103	1,07
1008,463	1,18
1008,824	1,2
1009,184	0,98
1009,544	1,17
1009,904	1,2
1010,265	1,14
1010,625	1,1
1010,985	1,21
1011,345	1,13
1011,705	1,4
1012,065	1,42
1012,424	1,2
1012,784	1,11
1013,144	0,99
1013,503	1,22
1013,863	1,12
1014,222	1,12
1014,582	1,08
1014,941	1
1015,3	1,4
1015,66	1,15
1016,019	1,1
1016,378	1,24
1016,737	1,03
1017,096	1,02
1017,455	1,13
1017,814	1,17
1018,173	1,18
1018,531	1,21
1018,89	1,26
1019,249	0,98
1019,607	1,29
1019,966	1,1
1020,324	0,9
1020,682	1,05
1021,041	1,27
1021,399	0,99
1021,757	1,15
1022,115	1,09
1022,473	1,31
1022,831	1,2
1023,189	1,15
1023,547	1,25
1023,905	1,02
1024,263	1,15
1024,62	1,36
1024,978	1,54
1025,335	1,1
1025,693	1,46
1026,05	1,09
1026,408	1,02
1026,765	1
1027,122	1,14
1027,479	1,21
1027,837	1,08
1028,194	1,27
1028,551	1,33
1028,908	1,22
1029,264	1,2
1029,621	1,2
1029,978	1,21
1030,335	1,29
1030,691	1,38
1031,048	1,03
1031,404	1,08
1031,761	1,47
1032,117	1,08
1032,473	1,43
1032,83	1,1
1033,186	1,04
1033,542	1,18
1033,898	1,08
1034,254	1,01
1034,61	1,01
1034,966	1,01
