Data from Absorbance__29__14-47-13-668.txt Node

Date: Wed Apr 28 14:47:13 CEST 2021
User: thoma
Spectrometer: FLMS05507
Trigger mode: 0
Integration Time (sec): 6,930000E-3
Scans to average: 200
Electric dark correction enabled: true
Nonlinearity correction enabled: false
Boxcar width: 0
XAxis mode: Wavelengths
Number of Pixels in Spectrum: 2048
>>>>>Begin Spectral Data<<<<<
188,96	0,64
189,424	0,64
189,887	0,64
190,351	0,1
190,815	0,28
191,279	-0
191,742	-0
192,206	-0,5
192,669	-0,58
193,133	-0
193,596	-0
194,06	-1,25
194,523	-0,76
194,987	-0
195,45	-0,51
195,913	-0
196,376	-0,14
196,84	-0,31
197,303	-0,26
197,766	0,17
198,229	-0,94
198,692	-0,66
199,155	0,59
199,618	2,45
200,081	2,65
200,543	2,69
201,006	2,66
201,469	2,73
201,932	2,76
202,394	2,72
202,857	2,72
203,32	2,76
203,782	2,75
204,245	2,74
204,707	2,75
205,169	2,74
205,632	2,76
206,094	2,76
206,556	2,77
207,019	2,78
207,481	2,79
207,943	2,8
208,405	2,8
208,867	2,84
209,329	2,85
209,791	2,85
210,253	2,88
210,715	2,85
211,177	2,9
211,639	2,86
212,1	2,88
212,562	2,84
213,024	2,88
213,485	2,87
213,947	2,89
214,408	2,95
214,87	2,96
215,331	2,9
215,793	2,93
216,254	2,93
216,715	2,94
217,177	2,96
217,638	2,92
218,099	2,92
218,56	2,94
219,021	2,92
219,482	2,9
219,944	2,95
220,404	2,92
220,865	2,95
221,326	2,91
221,787	2,93
222,248	2,95
222,709	3
223,169	2,91
223,63	2,95
224,091	2,96
224,551	2,96
225,012	2,92
225,472	2,91
225,933	2,99
226,393	2,91
226,854	2,91
227,314	2,99
227,774	2,9
228,234	2,97
228,695	2,95
229,155	2,96
229,615	2,96
230,075	2,97
230,535	2,95
230,995	2,92
231,455	3,01
231,915	2,98
232,375	2,96
232,834	2,96
233,294	2,92
233,754	2,97
234,214	2,96
234,673	3
235,133	2,95
235,592	2,96
236,052	2,9
236,511	2,96
236,971	2,92
237,43	2,95
237,889	2,91
238,349	2,94
238,808	2,96
239,267	2,95
239,726	2,93
240,185	2,93
240,644	2,91
241,103	2,97
241,562	2,98
242,021	2,92
242,48	2,91
242,939	2,92
243,398	2,87
243,857	2,94
244,315	2,95
244,774	2,92
245,233	2,93
245,691	2,92
246,15	2,9
246,608	2,89
247,067	2,94
247,525	2,9
247,983	2,88
248,442	2,85
248,9	2,9
249,358	2,85
249,816	2,89
250,274	2,94
250,733	2,91
251,191	2,86
251,649	2,84
252,107	2,9
252,564	2,92
253,022	2,87
253,48	2,89
253,938	2,9
254,396	2,87
254,853	2,88
255,311	2,9
255,769	2,84
256,226	2,8
256,684	2,87
257,141	2,87
257,599	2,82
258,056	2,87
258,513	2,83
258,971	2,85
259,428	2,84
259,885	2,82
260,342	2,85
260,799	2,83
261,256	2,84
261,714	2,81
262,171	2,83
262,627	2,8
263,084	2,78
263,541	2,78
263,998	2,84
264,455	2,78
264,912	2,78
265,368	2,77
265,825	2,73
266,281	2,78
266,738	2,78
267,194	2,76
267,651	2,72
268,107	2,71
268,564	2,81
269,02	2,76
269,476	2,73
269,933	2,71
270,389	2,72
270,845	2,72
271,301	2,72
271,757	2,7
272,213	2,69
272,669	2,7
273,125	2,67
273,581	2,62
274,037	2,65
274,492	2,67
274,948	2,65
275,404	2,68
275,86	2,69
276,315	2,65
276,771	2,65
277,226	2,63
277,682	2,62
278,137	2,64
278,593	2,62
279,048	2,61
279,503	2,61
279,958	2,64
280,414	2,59
280,869	2,59
281,324	2,61
281,779	2,55
282,234	2,55
282,689	2,59
283,144	2,55
283,599	2,51
284,054	2,53
284,508	2,52
284,963	2,5
285,418	2,5
285,873	2,42
286,327	2,44
286,782	2,45
287,236	2,43
287,691	2,38
288,145	2,32
288,6	2,28
289,054	2,23
289,508	2,2
289,963	2,16
290,417	2,1
290,871	2,05
291,325	1,99
291,779	1,94
292,233	1,89
292,687	1,83
293,141	1,79
293,595	1,72
294,049	1,67
294,503	1,61
294,957	1,57
295,41	1,51
295,864	1,46
296,318	1,41
296,771	1,36
297,225	1,32
297,678	1,27
298,132	1,23
298,585	1,19
299,039	1,15
299,492	1,11
299,945	1,07
300,398	1,03
300,852	1
301,305	0,96
301,758	0,93
302,211	0,9
302,664	0,87
303,117	0,84
303,57	0,81
304,023	0,79
304,476	0,76
304,928	0,73
305,381	0,71
305,834	0,69
306,286	0,67
306,739	0,65
307,192	0,63
307,644	0,61
308,097	0,59
308,549	0,57
309,001	0,55
309,454	0,54
309,906	0,52
310,358	0,51
310,81	0,49
311,263	0,48
311,715	0,46
312,167	0,45
312,619	0,44
313,071	0,43
313,523	0,42
313,975	0,41
314,426	0,4
314,878	0,39
315,33	0,38
315,782	0,37
316,233	0,36
316,685	0,35
317,136	0,35
317,588	0,34
318,039	0,34
318,491	0,33
318,942	0,32
319,393	0,31
319,845	0,31
320,296	0,3
320,747	0,3
321,198	0,29
321,649	0,28
322,101	0,27
322,552	0,27
323,003	0,26
323,453	0,26
323,904	0,26
324,355	0,26
324,806	0,25
325,257	0,25
325,707	0,24
326,158	0,24
326,609	0,24
327,059	0,23
327,51	0,23
327,96	0,23
328,411	0,23
328,861	0,22
329,311	0,22
329,762	0,22
330,212	0,22
330,662	0,21
331,112	0,21
331,562	0,21
332,012	0,21
332,462	0,21
332,912	0,2
333,362	0,2
333,812	0,2
334,262	0,2
334,712	0,2
335,161	0,2
335,611	0,19
336,061	0,19
336,51	0,19
336,96	0,19
337,409	0,19
337,859	0,19
338,308	0,18
338,758	0,18
339,207	0,18
339,656	0,18
340,105	0,18
340,555	0,18
341,004	0,18
341,453	0,18
341,902	0,18
342,351	0,18
342,8	0,17
343,249	0,17
343,698	0,17
344,146	0,17
344,595	0,17
345,044	0,17
345,493	0,17
345,941	0,17
346,39	0,17
346,838	0,17
347,287	0,17
347,735	0,17
348,184	0,17
348,632	0,17
349,08	0,17
349,529	0,17
349,977	0,16
350,425	0,16
350,873	0,16
351,321	0,16
351,769	0,16
352,217	0,16
352,665	0,16
353,113	0,16
353,561	0,16
354,009	0,16
354,456	0,16
354,904	0,16
355,352	0,16
355,799	0,16
356,247	0,16
356,694	0,16
357,142	0,16
357,589	0,16
358,037	0,16
358,484	0,16
358,931	0,16
359,379	0,16
359,826	0,16
360,273	0,16
360,72	0,16
361,167	0,16
361,614	0,16
362,061	0,15
362,508	0,16
362,955	0,15
363,402	0,16
363,848	0,16
364,295	0,15
364,742	0,16
365,188	0,16
365,635	0,15
366,082	0,15
366,528	0,15
366,975	0,15
367,421	0,15
367,867	0,15
368,314	0,15
368,76	0,15
369,206	0,15
369,652	0,15
370,098	0,15
370,545	0,15
370,991	0,15
371,437	0,15
371,882	0,15
372,328	0,15
372,774	0,15
373,22	0,15
373,666	0,15
374,111	0,15
374,557	0,15
375,003	0,15
375,448	0,15
375,894	0,15
376,339	0,15
376,785	0,15
377,23	0,15
377,675	0,15
378,121	0,15
378,566	0,15
379,011	0,15
379,456	0,15
379,901	0,15
380,346	0,15
380,791	0,15
381,236	0,15
381,681	0,15
382,126	0,15
382,571	0,15
383,016	0,15
383,461	0,15
383,905	0,15
384,35	0,15
384,794	0,15
385,239	0,15
385,683	0,15
386,128	0,15
386,572	0,15
387,017	0,15
387,461	0,15
387,905	0,15
388,349	0,15
388,794	0,15
389,238	0,15
389,682	0,15
390,126	0,15
390,57	0,15
391,014	0,15
391,457	0,15
391,901	0,15
392,345	0,15
392,789	0,15
393,233	0,15
393,676	0,15
394,12	0,15
394,563	0,15
395,007	0,15
395,45	0,15
395,894	0,15
396,337	0,15
396,78	0,15
397,224	0,15
397,667	0,15
398,11	0,15
398,553	0,15
398,996	0,15
399,439	0,15
399,882	0,15
400,325	0,15
400,768	0,15
401,211	0,15
401,654	0,15
402,096	0,15
402,539	0,15
402,982	0,15
403,424	0,15
403,867	0,15
404,309	0,15
404,752	0,15
405,194	0,15
405,637	0,15
406,079	0,15
406,521	0,15
406,963	0,15
407,406	0,15
407,848	0,15
408,29	0,15
408,732	0,15
409,174	0,15
409,616	0,15
410,058	0,15
410,499	0,15
410,941	0,15
411,383	0,15
411,825	0,15
412,266	0,15
412,708	0,15
413,15	0,15
413,591	0,15
414,033	0,15
414,474	0,15
414,915	0,15
415,357	0,15
415,798	0,15
416,239	0,15
416,68	0,15
417,121	0,15
417,563	0,15
418,004	0,15
418,445	0,15
418,885	0,15
419,326	0,15
419,767	0,15
420,208	0,15
420,649	0,15
421,089	0,15
421,53	0,15
421,971	0,15
422,411	0,15
422,852	0,15
423,292	0,15
423,733	0,15
424,173	0,15
424,613	0,15
425,054	0,15
425,494	0,15
425,934	0,15
426,374	0,15
426,814	0,15
427,254	0,15
427,694	0,15
428,134	0,15
428,574	0,16
429,014	0,15
429,454	0,15
429,893	0,15
430,333	0,15
430,773	0,15
431,212	0,15
431,652	0,15
432,091	0,15
432,531	0,15
432,97	0,16
433,41	0,16
433,849	0,16
434,288	0,16
434,727	0,16
435,167	0,16
435,606	0,16
436,045	0,16
436,484	0,16
436,923	0,16
437,362	0,16
437,801	0,16
438,239	0,16
438,678	0,16
439,117	0,16
439,556	0,16
439,994	0,16
440,433	0,16
440,871	0,16
441,31	0,16
441,748	0,16
442,187	0,16
442,625	0,16
443,063	0,16
443,502	0,16
443,94	0,16
444,378	0,16
444,816	0,16
445,254	0,16
445,692	0,16
446,13	0,16
446,568	0,16
447,006	0,16
447,444	0,16
447,881	0,16
448,319	0,16
448,757	0,16
449,194	0,16
449,632	0,16
450,07	0,16
450,507	0,16
450,944	0,16
451,382	0,16
451,819	0,16
452,256	0,16
452,694	0,16
453,131	0,16
453,568	0,16
454,005	0,16
454,442	0,16
454,879	0,16
455,316	0,16
455,753	0,16
456,19	0,16
456,627	0,16
457,063	0,16
457,5	0,16
457,937	0,16
458,373	0,16
458,81	0,16
459,246	0,16
459,683	0,16
460,119	0,16
460,556	0,16
460,992	0,16
461,428	0,16
461,864	0,16
462,301	0,16
462,737	0,16
463,173	0,16
463,609	0,17
464,045	0,17
464,481	0,17
464,917	0,17
465,352	0,17
465,788	0,17
466,224	0,17
466,66	0,16
467,095	0,17
467,531	0,17
467,966	0,17
468,402	0,17
468,837	0,17
469,273	0,17
469,708	0,17
470,143	0,17
470,578	0,17
471,014	0,17
471,449	0,17
471,884	0,17
472,319	0,17
472,754	0,17
473,189	0,17
473,624	0,17
474,059	0,17
474,493	0,17
474,928	0,17
475,363	0,17
475,797	0,17
476,232	0,17
476,667	0,17
477,101	0,17
477,536	0,17
477,97	0,17
478,404	0,17
478,839	0,17
479,273	0,17
479,707	0,17
480,141	0,17
480,575	0,17
481,009	0,18
481,444	0,18
481,877	0,17
482,311	0,17
482,745	0,17
483,179	0,18
483,613	0,17
484,047	0,18
484,48	0,18
484,914	0,18
485,347	0,18
485,781	0,17
486,214	0,17
486,648	0,17
487,081	0,17
487,515	0,17
487,948	0,17
488,381	0,17
488,814	0,18
489,247	0,18
489,68	0,18
490,113	0,18
490,546	0,18
490,979	0,18
491,412	0,18
491,845	0,18
492,278	0,18
492,711	0,18
493,143	0,18
493,576	0,18
494,009	0,18
494,441	0,18
494,874	0,18
495,306	0,18
495,738	0,18
496,171	0,18
496,603	0,18
497,035	0,18
497,467	0,18
497,9	0,18
498,332	0,18
498,764	0,18
499,196	0,18
499,628	0,18
500,06	0,18
500,491	0,18
500,923	0,18
501,355	0,18
501,787	0,18
502,218	0,18
502,65	0,18
503,081	0,18
503,513	0,18
503,944	0,18
504,376	0,18
504,807	0,18
505,238	0,18
505,67	0,18
506,101	0,18
506,532	0,18
506,963	0,18
507,394	0,18
507,825	0,19
508,256	0,19
508,687	0,19
509,118	0,19
509,549	0,19
509,979	0,19
510,41	0,19
510,841	0,19
511,271	0,19
511,702	0,19
512,132	0,19
512,563	0,19
512,993	0,19
513,424	0,19
513,854	0,19
514,284	0,19
514,714	0,19
515,145	0,19
515,575	0,19
516,005	0,19
516,435	0,19
516,865	0,19
517,295	0,19
517,724	0,19
518,154	0,19
518,584	0,19
519,014	0,19
519,443	0,19
519,873	0,19
520,303	0,19
520,732	0,19
521,161	0,19
521,591	0,19
522,02	0,19
522,45	0,19
522,879	0,19
523,308	0,2
523,737	0,2
524,166	0,2
524,595	0,2
525,024	0,2
525,453	0,2
525,882	0,2
526,311	0,2
526,74	0,2
527,169	0,2
527,597	0,2
528,026	0,2
528,455	0,2
528,883	0,2
529,312	0,2
529,74	0,2
530,168	0,2
530,597	0,2
531,025	0,2
531,453	0,2
531,882	0,2
532,31	0,2
532,738	0,2
533,166	0,2
533,594	0,2
534,022	0,2
534,45	0,2
534,878	0,2
535,305	0,2
535,733	0,2
536,161	0,2
536,588	0,2
537,016	0,2
537,444	0,21
537,871	0,21
538,299	0,21
538,726	0,21
539,153	0,21
539,581	0,21
540,008	0,21
540,435	0,21
540,862	0,21
541,289	0,21
541,716	0,21
542,143	0,21
542,57	0,21
542,997	0,21
543,424	0,21
543,851	0,21
544,277	0,21
544,704	0,21
545,131	0,21
545,557	0,21
545,984	0,21
546,41	0,21
546,837	0,21
547,263	0,21
547,69	0,21
548,116	0,22
548,542	0,22
548,968	0,22
549,394	0,22
549,82	0,22
550,246	0,22
550,672	0,22
551,098	0,22
551,524	0,22
551,95	0,22
552,376	0,22
552,802	0,22
553,227	0,22
553,653	0,22
554,078	0,22
554,504	0,22
554,929	0,22
555,355	0,22
555,78	0,23
556,206	0,22
556,631	0,23
557,056	0,23
557,481	0,23
557,906	0,23
558,331	0,23
558,756	0,23
559,181	0,23
559,606	0,23
560,031	0,23
560,456	0,23
560,881	0,23
561,305	0,23
561,73	0,23
562,155	0,23
562,579	0,23
563,004	0,24
563,428	0,24
563,853	0,24
564,277	0,24
564,701	0,24
565,126	0,24
565,55	0,24
565,974	0,24
566,398	0,24
566,822	0,24
567,246	0,24
567,67	0,24
568,094	0,24
568,518	0,24
568,941	0,24
569,365	0,24
569,789	0,24
570,213	0,25
570,636	0,25
571,06	0,25
571,483	0,25
571,907	0,25
572,33	0,25
572,753	0,25
573,177	0,25
573,6	0,25
574,023	0,25
574,446	0,25
574,869	0,25
575,292	0,25
575,715	0,26
576,138	0,26
576,561	0,26
576,984	0,26
577,407	0,26
577,829	0,26
578,252	0,26
578,675	0,26
579,097	0,26
579,52	0,26
579,942	0,27
580,364	0,27
580,787	0,27
581,209	0,27
581,631	0,27
582,054	0,27
582,476	0,27
582,898	0,27
583,32	0,28
583,742	0,28
584,164	0,28
584,586	0,28
585,008	0,28
585,429	0,28
585,851	0,28
586,273	0,28
586,694	0,28
587,116	0,29
587,538	0,29
587,959	0,29
588,38	0,29
588,802	0,29
589,223	0,3
589,644	0,3
590,066	0,3
590,487	0,3
590,908	0,3
591,329	0,3
591,75	0,31
592,171	0,31
592,592	0,31
593,013	0,31
593,434	0,31
593,854	0,31
594,275	0,31
594,696	0,32
595,116	0,32
595,537	0,32
595,957	0,32
596,378	0,33
596,798	0,33
597,218	0,33
597,639	0,33
598,059	0,33
598,479	0,33
598,899	0,33
599,319	0,33
599,739	0,34
600,159	0,34
600,579	0,34
600,999	0,34
601,419	0,34
601,839	0,34
602,259	0,35
602,678	0,35
603,098	0,35
603,517	0,35
603,937	0,35
604,356	0,35
604,776	0,36
605,195	0,36
605,614	0,36
606,034	0,36
606,453	0,36
606,872	0,37
607,291	0,37
607,71	0,37
608,129	0,37
608,548	0,38
608,967	0,38
609,386	0,38
609,805	0,38
610,223	0,39
610,642	0,39
611,061	0,39
611,479	0,39
611,898	0,4
612,316	0,4
612,735	0,4
613,153	0,4
613,571	0,41
613,99	0,41
614,408	0,41
614,826	0,41
615,244	0,42
615,662	0,42
616,08	0,42
616,498	0,42
616,916	0,43
617,334	0,43
617,752	0,43
618,169	0,44
618,587	0,44
619,005	0,44
619,422	0,45
619,84	0,45
620,257	0,45
620,675	0,45
621,092	0,46
621,509	0,46
621,927	0,46
622,344	0,47
622,761	0,47
623,178	0,47
623,595	0,48
624,012	0,48
624,429	0,48
624,846	0,49
625,263	0,49
625,68	0,49
626,097	0,5
626,513	0,5
626,93	0,5
627,346	0,5
627,763	0,51
628,179	0,51
628,596	0,51
629,012	0,52
629,429	0,52
629,845	0,52
630,261	0,53
630,677	0,53
631,093	0,54
631,509	0,54
631,925	0,54
632,341	0,55
632,757	0,55
633,173	0,55
633,589	0,56
634,005	0,56
634,42	0,56
634,836	0,57
635,252	0,57
635,667	0,58
636,083	0,58
636,498	0,58
636,913	0,59
637,329	0,59
637,744	0,59
638,159	0,6
638,574	0,6
638,99	0,61
639,405	0,61
639,82	0,61
640,235	0,62
640,65	0,62
641,064	0,63
641,479	0,63
641,894	0,63
642,309	0,64
642,723	0,64
643,138	0,65
643,552	0,65
643,967	0,66
644,381	0,66
644,796	0,66
645,21	0,67
645,624	0,67
646,038	0,68
646,453	0,68
646,867	0,69
647,281	0,69
647,695	0,7
648,109	0,7
648,523	0,7
648,936	0,71
649,35	0,71
649,764	0,72
650,178	0,72
650,591	0,73
651,005	0,73
651,418	0,74
651,832	0,74
652,245	0,75
652,659	0,75
653,072	0,76
653,485	0,76
653,898	0,77
654,312	0,77
654,725	0,78
655,138	0,78
655,551	0,79
655,964	0,79
656,377	0,79
656,789	0,8
657,202	0,8
657,615	0,81
658,028	0,81
658,44	0,82
658,853	0,83
659,265	0,83
659,678	0,84
660,09	0,84
660,503	0,85
660,915	0,85
661,327	0,86
661,739	0,86
662,152	0,87
662,564	0,87
662,976	0,88
663,388	0,88
663,8	0,89
664,211	0,9
664,623	0,9
665,035	0,91
665,447	0,91
665,858	0,92
666,27	0,92
666,682	0,93
667,093	0,93
667,505	0,94
667,916	0,94
668,327	0,95
668,739	0,95
669,15	0,96
669,561	0,97
669,972	0,97
670,383	0,98
670,794	0,98
671,205	0,99
671,616	0,99
672,027	1
672,438	1,01
672,849	1,01
673,259	1,02
673,67	1,02
674,08	1,03
674,491	1,03
674,901	1,04
675,312	1,05
675,722	1,05
676,133	1,06
676,543	1,06
676,953	1,07
677,363	1,08
677,773	1,08
678,183	1,09
678,593	1,09
679,003	1,1
679,413	1,11
679,823	1,11
680,233	1,12
680,643	1,12
681,052	1,13
681,462	1,13
681,872	1,14
682,281	1,15
682,691	1,15
683,1	1,16
683,509	1,17
683,919	1,17
684,328	1,18
684,737	1,19
685,146	1,19
685,555	1,2
685,964	1,2
686,373	1,21
686,782	1,22
687,191	1,22
687,6	1,23
688,009	1,24
688,417	1,24
688,826	1,24
689,235	1,25
689,643	1,26
690,052	1,27
690,46	1,27
690,869	1,28
691,277	1,28
691,685	1,29
692,093	1,3
692,502	1,3
692,91	1,31
693,318	1,32
693,726	1,32
694,134	1,33
694,542	1,33
694,949	1,34
695,357	1,35
695,765	1,35
696,173	1,36
696,58	1,36
696,988	1,37
697,395	1,38
697,803	1,39
698,21	1,39
698,618	1,39
699,025	1,4
699,432	1,41
699,839	1,42
700,247	1,43
700,654	1,43
701,061	1,43
701,468	1,44
701,875	1,45
702,281	1,45
702,688	1,46
703,095	1,47
703,502	1,47
703,908	1,48
704,315	1,49
704,722	1,49
705,128	1,5
705,534	1,51
705,941	1,51
706,347	1,52
706,753	1,52
707,16	1,52
707,566	1,54
707,972	1,54
708,378	1,54
708,784	1,56
709,19	1,56
709,596	1,56
710,002	1,57
710,407	1,58
710,813	1,58
711,219	1,59
711,625	1,6
712,03	1,6
712,436	1,61
712,841	1,61
713,246	1,62
713,652	1,62
714,057	1,64
714,462	1,64
714,868	1,64
715,273	1,65
715,678	1,66
716,083	1,67
716,488	1,66
716,893	1,68
717,297	1,68
717,702	1,68
718,107	1,69
718,512	1,7
718,916	1,7
719,321	1,72
719,725	1,71
720,13	1,72
720,534	1,73
720,939	1,73
721,343	1,73
721,747	1,74
722,151	1,75
722,556	1,75
722,96	1,77
723,364	1,76
723,768	1,77
724,172	1,78
724,576	1,78
724,979	1,78
725,383	1,8
725,787	1,81
726,19	1,8
726,594	1,81
726,998	1,82
727,401	1,83
727,805	1,82
728,208	1,82
728,611	1,84
729,014	1,84
729,418	1,85
729,821	1,85
730,224	1,86
730,627	1,87
731,03	1,88
731,433	1,88
731,836	1,88
732,239	1,89
732,641	1,89
733,044	1,89
733,447	1,9
733,849	1,9
734,252	1,92
734,654	1,92
735,057	1,93
735,459	1,94
735,862	1,94
736,264	1,95
736,666	1,93
737,068	1,95
737,47	1,95
737,872	1,95
738,274	1,96
738,676	1,96
739,078	1,97
739,48	1,98
739,882	1,98
740,284	1,98
740,685	1,98
741,087	2,01
741,488	2,01
741,89	2,01
742,291	2,01
742,693	2,02
743,094	2,02
743,495	2,02
743,897	2,03
744,298	2,02
744,699	2,03
745,1	2,04
745,501	2,04
745,902	2,03
746,303	2,04
746,704	2,07
747,105	2,05
747,505	2,06
747,906	2,07
748,307	2,06
748,707	2,07
749,108	2,09
749,508	2,07
749,908	2,09
750,309	2,08
750,709	2,09
751,109	2,1
751,51	2,1
751,91	2,1
752,31	2,11
752,71	2,11
753,11	2,11
753,51	2,11
753,909	2,12
754,309	2,13
754,709	2,12
755,109	2,12
755,508	2,14
755,908	2,15
756,307	2,16
756,707	2,14
757,106	2,15
757,505	2,14
757,905	2,16
758,304	2,15
758,703	2,17
759,102	2,16
759,501	2,16
759,9	2,17
760,299	2,18
760,698	2,19
761,097	2,18
761,496	2,19
761,895	2,18
762,293	2,19
762,692	2,21
763,09	2,19
763,489	2,18
763,887	2,2
764,286	2,2
764,684	2,2
765,082	2,21
765,481	2,2
765,879	2,2
766,277	2,2
766,675	2,2
767,073	2,21
767,471	2,21
767,869	2,21
768,267	2,21
768,664	2,23
769,062	2,21
769,46	2,22
769,857	2,22
770,255	2,23
770,653	2,24
771,05	2,24
771,447	2,23
771,845	2,24
772,242	2,24
772,639	2,23
773,036	2,24
773,433	2,24
773,831	2,23
774,228	2,22
774,624	2,25
775,021	2,23
775,418	2,23
775,815	2,24
776,212	2,27
776,608	2,24
777,005	2,27
777,401	2,26
777,798	2,26
778,194	2,23
778,591	2,28
778,987	2,24
779,383	2,25
779,78	2,26
780,176	2,26
780,572	2,28
780,968	2,28
781,364	2,26
781,76	2,29
782,156	2,27
782,551	2,25
782,947	2,25
783,343	2,27
783,739	2,29
784,134	2,27
784,53	2,29
784,925	2,28
785,321	2,28
785,716	2,28
786,111	2,3
786,507	2,28
786,902	2,29
787,297	2,31
787,692	2,29
788,087	2,28
788,482	2,28
788,877	2,29
789,272	2,28
789,667	2,29
790,061	2,3
790,456	2,29
790,851	2,29
791,245	2,3
791,64	2,28
792,034	2,31
792,429	2,26
792,823	2,27
793,217	2,27
793,612	2,31
794,006	2,31
794,4	2,26
794,794	2,32
795,188	2,32
795,582	2,3
795,976	2,32
796,37	2,3
796,763	2,29
797,157	2,28
797,551	2,3
797,944	2,27
798,338	2,28
798,731	2,28
799,125	2,3
799,518	2,27
799,912	2,3
800,305	2,28
800,698	2,27
801,091	2,26
801,484	2,3
801,877	2,33
802,27	2,27
802,663	2,24
803,056	2,29
803,449	2,3
803,842	2,28
804,235	2,29
804,627	2,33
805,02	2,27
805,412	2,28
805,805	2,3
806,197	2,29
806,59	2,28
806,982	2,29
807,374	2,29
807,766	2,28
808,159	2,26
808,551	2,27
808,943	2,3
809,335	2,28
809,727	2,28
810,118	2,24
810,51	2,27
810,902	2,28
811,294	2,24
811,685	2,28
812,077	2,25
812,468	2,25
812,86	2,28
813,251	2,28
813,643	2,26
814,034	2,27
814,425	2,31
814,816	2,3
815,207	2,26
815,598	2,27
815,989	2,34
816,38	2,23
816,771	2,26
817,162	2,29
817,553	2,27
817,944	2,26
818,334	2,24
818,725	2,22
819,115	2,27
819,506	2,23
819,896	2,26
820,287	2,28
820,677	2,27
821,067	2,24
821,457	2,25
821,848	2,23
822,238	2,25
822,628	2,2
823,018	2,23
823,408	2,25
823,797	2,25
824,187	2,27
824,577	2,24
824,967	2,27
825,356	2,2
825,746	2,2
826,135	2,25
826,525	2,22
826,914	2,2
827,304	2,23
827,693	2,22
828,082	2,26
828,471	2,19
828,86	2,24
829,249	2,27
829,638	2,24
830,027	2,22
830,416	2,2
830,805	2,22
831,194	2,23
831,582	2,21
831,971	2,18
832,36	2,23
832,748	2,21
833,137	2,26
833,525	2,23
833,914	2,18
834,302	2,23
834,69	2,22
835,078	2,18
835,466	2,22
835,854	2,19
836,243	2,21
836,63	2,23
837,018	2,18
837,406	2,19
837,794	2,23
838,182	2,17
838,569	2,16
838,957	2,19
839,345	2,15
839,732	2,17
840,12	2,15
840,507	2,18
840,894	2,17
841,282	2,15
841,669	2,14
842,056	2,18
842,443	2,25
842,83	2,19
843,217	2,18
843,604	2,19
843,991	2,16
844,378	2,19
844,764	2,16
845,151	2,16
845,538	2,16
845,924	2,17
846,311	2,18
846,697	2,11
847,084	2,12
847,47	2,14
847,856	2,16
848,242	2,19
848,629	2,16
849,015	2,14
849,401	2,19
849,787	2,14
850,173	2,13
850,559	2,15
850,944	2,18
851,33	2,15
851,716	2,16
852,102	2,18
852,487	2,08
852,873	2,16
853,258	2,15
853,644	2,09
854,029	2,16
854,414	2,15
854,799	2,15
855,185	2,14
855,57	2,15
855,955	2,13
856,34	2,12
856,725	2,15
857,11	2,14
857,495	2,12
857,879	2,1
858,264	2,14
858,649	2,16
859,033	2,13
859,418	2,1
859,802	2,1
860,187	2,11
860,571	2,12
860,955	2,07
861,34	2,08
861,724	2,09
862,108	2,09
862,492	2,06
862,876	2,11
863,26	2,12
863,644	2,09
864,028	2,08
864,412	2,12
864,795	2,08
865,179	2,12
865,563	2,08
865,946	2,03
866,33	2,05
866,713	2,03
867,097	2,04
867,48	2,08
867,863	2,04
868,246	2,1
868,629	2,06
869,013	2,11
869,396	2,06
869,779	2,04
870,161	2,01
870,544	2,06
870,927	2,1
871,31	2,05
871,693	2,02
872,075	2,03
872,458	2,04
872,84	2,05
873,223	2,04
873,605	2,07
873,987	2,05
874,37	2,11
874,752	1,99
875,134	2,05
875,516	1,97
875,898	2,01
876,28	2,03
876,662	2,05
877,044	2,06
877,426	2,03
877,807	1,99
878,189	2,11
878,571	2,04
878,952	2,04
879,334	1,98
879,715	2
880,097	2,02
880,478	1,96
880,859	2,01
881,24	2
881,622	2
882,003	1,94
882,384	2,01
882,765	2
883,146	2
883,526	1,98
883,907	2
884,288	2,03
884,669	1,98
885,049	1,97
885,43	2,06
885,81	1,98
886,191	2
886,571	1,97
886,952	2,03
887,332	2
887,712	1,97
888,092	2
888,472	2,04
888,852	2,01
889,232	2,01
889,612	2
889,992	2,01
890,372	1,98
890,752	1,98
891,131	2,01
891,511	2
891,89	1,99
892,27	2
892,649	1,99
893,029	2,01
893,408	1,98
893,787	2
894,167	2,02
894,546	1,98
894,925	1,99
895,304	1,96
895,683	1,98
896,062	1,98
896,441	1,97
896,819	1,98
897,198	1,9
897,577	1,95
897,955	1,94
898,334	1,95
898,712	1,95
899,091	1,93
899,469	1,95
899,848	1,95
900,226	1,94
900,604	1,95
900,982	1,94
901,36	1,96
901,738	1,9
902,116	1,89
902,494	1,89
902,872	1,94
903,25	1,88
903,628	1,89
904,005	1,92
904,383	1,96
904,76	1,91
905,138	1,95
905,515	1,92
905,893	1,91
906,27	1,92
906,647	1,89
907,024	1,91
907,402	1,88
907,779	1,89
908,156	1,91
908,533	1,87
908,91	1,86
909,286	1,85
909,663	1,9
910,04	1,89
910,417	1,84
910,793	1,91
911,17	1,89
911,546	1,88
911,923	1,89
912,299	1,84
912,675	1,78
913,051	1,83
913,428	1,85
913,804	1,87
914,18	1,81
914,556	1,8
914,932	1,83
915,308	1,79
915,683	1,77
916,059	1,81
916,435	1,89
916,811	1,85
917,186	1,83
917,562	1,86
917,937	1,89
918,313	1,81
918,688	1,78
919,063	1,81
919,438	1,86
919,814	1,86
920,189	1,88
920,564	1,81
920,939	1,86
921,314	1,83
921,689	1,8
922,063	1,87
922,438	1,81
922,813	1,84
923,187	1,76
923,562	1,84
923,936	1,81
924,311	1,82
924,685	1,75
925,06	1,79
925,434	1,78
925,808	1,83
926,182	1,85
926,556	1,8
926,93	1,74
927,304	1,79
927,678	1,77
928,052	1,74
928,426	1,72
928,8	1,76
929,173	1,79
929,547	1,82
929,92	1,73
930,294	1,76
930,667	1,71
931,041	1,74
931,414	1,76
931,787	1,74
932,161	1,75
932,534	1,75
932,907	1,72
933,28	1,79
933,653	1,73
934,026	1,8
934,398	1,72
934,771	1,76
935,144	1,73
935,517	1,7
935,889	1,72
936,262	1,7
936,634	1,75
937,007	1,75
937,379	1,66
937,751	1,71
938,123	1,66
938,496	1,76
938,868	1,63
939,24	1,76
939,612	1,69
939,984	1,65
940,355	1,68
940,727	1,65
941,099	1,68
941,471	1,78
941,842	1,69
942,214	1,62
942,585	1,68
942,957	1,66
943,328	1,64
943,7	1,74
944,071	1,61
944,442	1,67
944,813	1,68
945,184	1,63
945,555	1,67
945,926	1,7
946,297	1,71
946,668	1,64
947,039	1,66
947,409	1,61
947,78	1,57
948,151	1,58
948,521	1,66
948,892	1,67
949,262	1,77
949,633	1,77
950,003	1,56
950,373	1,65
950,743	1,53
951,113	1,53
951,483	1,48
951,853	1,58
952,223	1,49
952,593	1,6
952,963	1,5
953,333	1,52
953,702	1,46
954,072	1,57
954,442	1,43
954,811	1,59
955,181	1,41
955,55	1,5
955,919	1,42
956,289	1,38
956,658	1,42
957,027	1,46
957,396	1,42
957,765	1,49
958,134	1,46
958,503	1,46
958,872	1,41
959,24	1,52
959,609	1,4
959,978	1,53
960,346	1,49
960,715	1,4
961,083	1,51
961,452	1,58
961,82	1,53
962,188	1,44
962,557	1,44
962,925	1,45
963,293	1,36
963,661	1,39
964,029	1,36
964,397	1,41
964,765	1,43
965,133	1,42
965,5	1,36
965,868	1,3
966,236	1,32
966,603	1,33
966,971	1,38
967,338	1,29
967,706	1,55
968,073	1,35
968,44	1,23
968,807	1,27
969,174	1,38
969,542	1,34
969,909	1,34
970,275	1,16
970,642	1,32
971,009	1,36
971,376	1,4
971,743	1,41
972,109	1,33
972,476	1,32
972,842	1,31
973,209	1,36
973,575	1,46
973,942	1,45
974,308	1,14
974,674	1,28
975,04	1,32
975,406	1,14
975,772	1,25
976,138	1,2
976,504	1,45
976,87	1,36
977,236	1,4
977,602	1,08
977,967	1,66
978,333	1,34
978,698	1,39
979,064	1,36
979,429	1,21
979,795	1,38
980,16	1,5
980,525	1,29
980,89	1,21
981,255	1,23
981,621	1,27
981,986	1,21
982,35	1,26
982,715	1,25
983,08	1,39
983,445	1,24
983,81	1,18
984,174	1,28
984,539	1,26
984,903	1,08
985,268	1,33
985,632	1,41
985,996	1,51
986,361	1,17
986,725	1,15
987,089	1,26
987,453	1,28
987,817	1,18
988,181	1,16
988,545	1,23
988,909	1,12
989,272	1,18
989,636	1,32
990	1,42
990,363	1,15
990,727	1,17
991,09	1,14
991,454	1,15
991,817	1,34
992,18	1,3
992,543	1,24
992,907	1,37
993,27	1,3
993,633	1,03
993,996	1,34
994,359	1,1
994,721	1,78
995,084	1,22
995,447	1,31
995,81	1,02
996,172	1,23
996,535	1,37
996,897	1,1
997,259	1,13
997,622	1,1
997,984	1,22
998,346	1,21
998,708	1,21
999,071	1,4
999,433	1,29
999,795	1,31
1000,156	1,28
1000,518	1,24
1000,88	1,12
1001,242	1,18
1001,603	1,13
1001,965	1,08
1002,327	1,23
1002,688	1,28
1003,049	1,14
1003,411	1,13
1003,772	1,18
1004,133	1,63
1004,495	1,11
1004,856	1,11
1005,217	1,46
1005,578	1,01
1005,939	1,15
1006,299	1,19
1006,66	1,38
1007,021	1,16
1007,382	1,35
1007,742	1,11
1008,103	1,11
1008,463	1,11
1008,824	1,37
1009,184	1,01
1009,544	1,24
1009,904	1,14
1010,265	1,32
1010,625	1,03
1010,985	1,14
1011,345	1,29
1011,705	1,11
1012,065	1,19
1012,424	1,14
1012,784	1,43
1013,144	1,02
1013,503	1,39
1013,863	1,15
1014,222	1,32
1014,582	1,06
1014,941	1,12
1015,3	1,44
1015,66	1,22
1016,019	1,11
1016,378	1,4
1016,737	1,19
1017,096	1,09
1017,455	1,18
1017,814	1,32
1018,173	1,19
1018,531	1,23
1018,89	1,15
1019,249	1,12
1019,607	1,77
1019,966	1,2
1020,324	1,12
1020,682	1,01
1021,041	1,22
1021,399	1,25
1021,757	1,08
1022,115	1,11
1022,473	1,22
1022,831	1,11
1023,189	1,17
1023,547	1,25
1023,905	1,09
1024,263	1,74
1024,62	1,37
1024,978	1,5
1025,335	1,44
1025,693	-0
1026,05	1,23
1026,408	1,13
1026,765	1,23
1027,122	1,06
1027,479	1,18
1027,837	1,08
1028,194	1,3
1028,551	1,71
1028,908	1,1
1029,264	1,08
1029,621	1,16
1029,978	1,4
1030,335	1,15
1030,691	1,52
1031,048	1,21
1031,404	1,14
1031,761	1,76
1032,117	1,23
1032,473	1,36
1032,83	1,45
1033,186	1,2
1033,542	1,05
1033,898	1,03
1034,254	1,28
1034,61	1,28
1034,966	1,28
