Data from Absorbance__13__14-45-06-499.txt Node

Date: Wed Apr 28 14:45:06 CEST 2021
User: thoma
Spectrometer: FLMS05507
Trigger mode: 0
Integration Time (sec): 6,930000E-3
Scans to average: 200
Electric dark correction enabled: true
Nonlinearity correction enabled: false
Boxcar width: 0
XAxis mode: Wavelengths
Number of Pixels in Spectrum: 2048
>>>>>Begin Spectral Data<<<<<
188,96	0,26
189,424	0,26
189,887	0,26
190,351	0,16
190,815	0,1
191,279	0,09
191,742	-0
192,206	-0,67
192,669	-0,35
193,133	-0
193,596	1,42
194,06	-0
194,523	-0,56
194,987	-0
195,45	-0,61
195,913	0,54
196,376	-0,45
196,84	0,08
197,303	-0,28
197,766	0,08
198,229	-0,9
198,692	-0,2
199,155	0,56
199,618	1,92
200,081	1,96
200,543	1,99
201,006	2,01
201,469	2,01
201,932	2,02
202,394	2,03
202,857	2,04
203,32	2,05
203,782	2,05
204,245	2,07
204,707	2,08
205,169	2,07
205,632	2,09
206,094	2,09
206,556	2,1
207,019	2,11
207,481	2,12
207,943	2,12
208,405	2,13
208,867	2,14
209,329	2,13
209,791	2,14
210,253	2,15
210,715	2,13
211,177	2,15
211,639	2,13
212,1	2,13
212,562	2,11
213,024	2,11
213,485	2,07
213,947	2,05
214,408	2,04
214,87	2,01
215,331	1,97
215,793	1,92
216,254	1,89
216,715	1,83
217,177	1,78
217,638	1,74
218,099	1,67
218,56	1,62
219,021	1,56
219,482	1,5
219,944	1,45
220,404	1,39
220,865	1,34
221,326	1,29
221,787	1,24
222,248	1,2
222,709	1,15
223,169	1,11
223,63	1,07
224,091	1,04
224,551	1,01
225,012	0,98
225,472	0,96
225,933	0,93
226,393	0,91
226,854	0,89
227,314	0,87
227,774	0,86
228,234	0,84
228,695	0,83
229,155	0,82
229,615	0,81
230,075	0,8
230,535	0,79
230,995	0,78
231,455	0,78
231,915	0,77
232,375	0,77
232,834	0,76
233,294	0,76
233,754	0,75
234,214	0,75
234,673	0,75
235,133	0,75
235,592	0,74
236,052	0,74
236,511	0,74
236,971	0,74
237,43	0,73
237,889	0,73
238,349	0,73
238,808	0,73
239,267	0,73
239,726	0,72
240,185	0,72
240,644	0,72
241,103	0,72
241,562	0,71
242,021	0,71
242,48	0,71
242,939	0,71
243,398	0,7
243,857	0,7
244,315	0,7
244,774	0,7
245,233	0,69
245,691	0,69
246,15	0,68
246,608	0,68
247,067	0,68
247,525	0,67
247,983	0,67
248,442	0,66
248,9	0,66
249,358	0,66
249,816	0,65
250,274	0,65
250,733	0,64
251,191	0,64
251,649	0,63
252,107	0,63
252,564	0,62
253,022	0,62
253,48	0,61
253,938	0,61
254,396	0,6
254,853	0,6
255,311	0,59
255,769	0,58
256,226	0,58
256,684	0,57
257,141	0,57
257,599	0,56
258,056	0,56
258,513	0,55
258,971	0,55
259,428	0,54
259,885	0,54
260,342	0,53
260,799	0,53
261,256	0,52
261,714	0,52
262,171	0,51
262,627	0,51
263,084	0,5
263,541	0,5
263,998	0,5
264,455	0,49
264,912	0,49
265,368	0,48
265,825	0,48
266,281	0,47
266,738	0,47
267,194	0,47
267,651	0,46
268,107	0,46
268,564	0,46
269,02	0,45
269,476	0,45
269,933	0,44
270,389	0,44
270,845	0,44
271,301	0,44
271,757	0,43
272,213	0,43
272,669	0,43
273,125	0,42
273,581	0,42
274,037	0,42
274,492	0,42
274,948	0,41
275,404	0,41
275,86	0,41
276,315	0,41
276,771	0,4
277,226	0,4
277,682	0,4
278,137	0,4
278,593	0,39
279,048	0,39
279,503	0,39
279,958	0,39
280,414	0,38
280,869	0,38
281,324	0,38
281,779	0,38
282,234	0,38
282,689	0,37
283,144	0,37
283,599	0,37
284,054	0,37
284,508	0,36
284,963	0,36
285,418	0,36
285,873	0,36
286,327	0,36
286,782	0,35
287,236	0,35
287,691	0,35
288,145	0,35
288,6	0,35
289,054	0,34
289,508	0,34
289,963	0,34
290,417	0,34
290,871	0,34
291,325	0,33
291,779	0,33
292,233	0,33
292,687	0,33
293,141	0,33
293,595	0,32
294,049	0,32
294,503	0,32
294,957	0,32
295,41	0,32
295,864	0,32
296,318	0,32
296,771	0,31
297,225	0,31
297,678	0,31
298,132	0,31
298,585	0,31
299,039	0,31
299,492	0,31
299,945	0,3
300,398	0,3
300,852	0,3
301,305	0,3
301,758	0,3
302,211	0,3
302,664	0,29
303,117	0,29
303,57	0,29
304,023	0,29
304,476	0,29
304,928	0,29
305,381	0,29
305,834	0,29
306,286	0,28
306,739	0,28
307,192	0,28
307,644	0,28
308,097	0,28
308,549	0,28
309,001	0,28
309,454	0,28
309,906	0,27
310,358	0,27
310,81	0,27
311,263	0,27
311,715	0,27
312,167	0,27
312,619	0,27
313,071	0,27
313,523	0,27
313,975	0,26
314,426	0,26
314,878	0,26
315,33	0,26
315,782	0,26
316,233	0,26
316,685	0,26
317,136	0,26
317,588	0,26
318,039	0,26
318,491	0,25
318,942	0,25
319,393	0,25
319,845	0,25
320,296	0,25
320,747	0,26
321,198	0,25
321,649	0,25
322,101	0,25
322,552	0,25
323,003	0,25
323,453	0,25
323,904	0,25
324,355	0,24
324,806	0,24
325,257	0,24
325,707	0,24
326,158	0,24
326,609	0,24
327,059	0,24
327,51	0,24
327,96	0,24
328,411	0,24
328,861	0,24
329,311	0,24
329,762	0,24
330,212	0,24
330,662	0,24
331,112	0,24
331,562	0,23
332,012	0,24
332,462	0,24
332,912	0,23
333,362	0,23
333,812	0,23
334,262	0,23
334,712	0,23
335,161	0,23
335,611	0,23
336,061	0,23
336,51	0,23
336,96	0,23
337,409	0,23
337,859	0,23
338,308	0,23
338,758	0,23
339,207	0,23
339,656	0,23
340,105	0,23
340,555	0,23
341,004	0,23
341,453	0,23
341,902	0,23
342,351	0,23
342,8	0,23
343,249	0,23
343,698	0,23
344,146	0,23
344,595	0,23
345,044	0,23
345,493	0,23
345,941	0,23
346,39	0,23
346,838	0,23
347,287	0,23
347,735	0,23
348,184	0,23
348,632	0,23
349,08	0,23
349,529	0,23
349,977	0,23
350,425	0,23
350,873	0,23
351,321	0,23
351,769	0,23
352,217	0,23
352,665	0,24
353,113	0,24
353,561	0,24
354,009	0,24
354,456	0,24
354,904	0,24
355,352	0,24
355,799	0,24
356,247	0,24
356,694	0,24
357,142	0,25
357,589	0,25
358,037	0,25
358,484	0,25
358,931	0,25
359,379	0,25
359,826	0,25
360,273	0,25
360,72	0,26
361,167	0,26
361,614	0,26
362,061	0,26
362,508	0,26
362,955	0,26
363,402	0,27
363,848	0,27
364,295	0,27
364,742	0,28
365,188	0,28
365,635	0,28
366,082	0,28
366,528	0,29
366,975	0,29
367,421	0,29
367,867	0,3
368,314	0,3
368,76	0,3
369,206	0,31
369,652	0,31
370,098	0,31
370,545	0,32
370,991	0,32
371,437	0,32
371,882	0,33
372,328	0,33
372,774	0,33
373,22	0,34
373,666	0,34
374,111	0,35
374,557	0,35
375,003	0,36
375,448	0,36
375,894	0,36
376,339	0,37
376,785	0,37
377,23	0,38
377,675	0,38
378,121	0,38
378,566	0,39
379,011	0,39
379,456	0,4
379,901	0,4
380,346	0,4
380,791	0,41
381,236	0,41
381,681	0,42
382,126	0,42
382,571	0,42
383,016	0,43
383,461	0,43
383,905	0,43
384,35	0,44
384,794	0,44
385,239	0,44
385,683	0,45
386,128	0,45
386,572	0,45
387,017	0,46
387,461	0,46
387,905	0,46
388,349	0,46
388,794	0,47
389,238	0,47
389,682	0,47
390,126	0,47
390,57	0,47
391,014	0,47
391,457	0,48
391,901	0,48
392,345	0,48
392,789	0,48
393,233	0,48
393,676	0,48
394,12	0,48
394,563	0,48
395,007	0,48
395,45	0,48
395,894	0,48
396,337	0,48
396,78	0,48
397,224	0,48
397,667	0,48
398,11	0,47
398,553	0,48
398,996	0,47
399,439	0,47
399,882	0,47
400,325	0,47
400,768	0,47
401,211	0,46
401,654	0,46
402,096	0,46
402,539	0,46
402,982	0,46
403,424	0,45
403,867	0,45
404,309	0,45
404,752	0,45
405,194	0,44
405,637	0,44
406,079	0,44
406,521	0,44
406,963	0,43
407,406	0,43
407,848	0,43
408,29	0,43
408,732	0,42
409,174	0,42
409,616	0,42
410,058	0,41
410,499	0,41
410,941	0,41
411,383	0,4
411,825	0,4
412,266	0,4
412,708	0,39
413,15	0,39
413,591	0,39
414,033	0,38
414,474	0,38
414,915	0,38
415,357	0,37
415,798	0,37
416,239	0,37
416,68	0,36
417,121	0,36
417,563	0,36
418,004	0,35
418,445	0,35
418,885	0,34
419,326	0,34
419,767	0,34
420,208	0,33
420,649	0,33
421,089	0,33
421,53	0,32
421,971	0,32
422,411	0,31
422,852	0,31
423,292	0,31
423,733	0,31
424,173	0,3
424,613	0,3
425,054	0,3
425,494	0,29
425,934	0,29
426,374	0,29
426,814	0,29
427,254	0,28
427,694	0,28
428,134	0,28
428,574	0,27
429,014	0,27
429,454	0,27
429,893	0,27
430,333	0,26
430,773	0,26
431,212	0,26
431,652	0,26
432,091	0,26
432,531	0,25
432,97	0,25
433,41	0,25
433,849	0,25
434,288	0,25
434,727	0,25
435,167	0,25
435,606	0,24
436,045	0,24
436,484	0,24
436,923	0,24
437,362	0,24
437,801	0,24
438,239	0,24
438,678	0,24
439,117	0,23
439,556	0,23
439,994	0,23
440,433	0,23
440,871	0,23
441,31	0,23
441,748	0,23
442,187	0,23
442,625	0,23
443,063	0,23
443,502	0,23
443,94	0,23
444,378	0,23
444,816	0,23
445,254	0,23
445,692	0,23
446,13	0,23
446,568	0,22
447,006	0,22
447,444	0,23
447,881	0,22
448,319	0,22
448,757	0,22
449,194	0,22
449,632	0,22
450,07	0,22
450,507	0,22
450,944	0,22
451,382	0,22
451,819	0,22
452,256	0,22
452,694	0,22
453,131	0,22
453,568	0,22
454,005	0,22
454,442	0,22
454,879	0,22
455,316	0,22
455,753	0,22
456,19	0,22
456,627	0,22
457,063	0,22
457,5	0,22
457,937	0,22
458,373	0,22
458,81	0,22
459,246	0,22
459,683	0,22
460,119	0,22
460,556	0,22
460,992	0,22
461,428	0,22
461,864	0,22
462,301	0,22
462,737	0,22
463,173	0,22
463,609	0,22
464,045	0,22
464,481	0,22
464,917	0,22
465,352	0,22
465,788	0,22
466,224	0,22
466,66	0,22
467,095	0,22
467,531	0,22
467,966	0,22
468,402	0,22
468,837	0,22
469,273	0,22
469,708	0,22
470,143	0,22
470,578	0,22
471,014	0,22
471,449	0,22
471,884	0,22
472,319	0,22
472,754	0,22
473,189	0,22
473,624	0,22
474,059	0,22
474,493	0,22
474,928	0,22
475,363	0,22
475,797	0,22
476,232	0,22
476,667	0,22
477,101	0,22
477,536	0,22
477,97	0,22
478,404	0,22
478,839	0,22
479,273	0,22
479,707	0,22
480,141	0,22
480,575	0,22
481,009	0,22
481,444	0,22
481,877	0,22
482,311	0,22
482,745	0,22
483,179	0,22
483,613	0,22
484,047	0,22
484,48	0,22
484,914	0,22
485,347	0,22
485,781	0,21
486,214	0,21
486,648	0,21
487,081	0,21
487,515	0,21
487,948	0,21
488,381	0,21
488,814	0,21
489,247	0,22
489,68	0,21
490,113	0,22
490,546	0,22
490,979	0,22
491,412	0,22
491,845	0,22
492,278	0,21
492,711	0,22
493,143	0,22
493,576	0,21
494,009	0,21
494,441	0,22
494,874	0,21
495,306	0,22
495,738	0,22
496,171	0,22
496,603	0,21
497,035	0,22
497,467	0,21
497,9	0,21
498,332	0,22
498,764	0,22
499,196	0,22
499,628	0,22
500,06	0,22
500,491	0,22
500,923	0,22
501,355	0,22
501,787	0,22
502,218	0,22
502,65	0,22
503,081	0,22
503,513	0,22
503,944	0,21
504,376	0,22
504,807	0,21
505,238	0,21
505,67	0,21
506,101	0,21
506,532	0,21
506,963	0,22
507,394	0,21
507,825	0,22
508,256	0,22
508,687	0,21
509,118	0,22
509,549	0,22
509,979	0,22
510,41	0,22
510,841	0,22
511,271	0,22
511,702	0,22
512,132	0,22
512,563	0,21
512,993	0,22
513,424	0,22
513,854	0,22
514,284	0,22
514,714	0,22
515,145	0,22
515,575	0,22
516,005	0,22
516,435	0,22
516,865	0,22
517,295	0,22
517,724	0,22
518,154	0,22
518,584	0,22
519,014	0,22
519,443	0,22
519,873	0,22
520,303	0,22
520,732	0,22
521,161	0,22
521,591	0,22
522,02	0,22
522,45	0,22
522,879	0,22
523,308	0,22
523,737	0,22
524,166	0,22
524,595	0,22
525,024	0,22
525,453	0,22
525,882	0,22
526,311	0,22
526,74	0,22
527,169	0,22
527,597	0,22
528,026	0,22
528,455	0,22
528,883	0,22
529,312	0,22
529,74	0,22
530,168	0,22
530,597	0,22
531,025	0,22
531,453	0,22
531,882	0,22
532,31	0,22
532,738	0,22
533,166	0,22
533,594	0,22
534,022	0,22
534,45	0,22
534,878	0,22
535,305	0,22
535,733	0,22
536,161	0,22
536,588	0,22
537,016	0,22
537,444	0,22
537,871	0,22
538,299	0,22
538,726	0,22
539,153	0,22
539,581	0,22
540,008	0,22
540,435	0,22
540,862	0,22
541,289	0,22
541,716	0,22
542,143	0,22
542,57	0,22
542,997	0,22
543,424	0,22
543,851	0,22
544,277	0,22
544,704	0,22
545,131	0,22
545,557	0,22
545,984	0,22
546,41	0,22
546,837	0,22
547,263	0,22
547,69	0,22
548,116	0,22
548,542	0,22
548,968	0,22
549,394	0,22
549,82	0,22
550,246	0,22
550,672	0,22
551,098	0,22
551,524	0,22
551,95	0,22
552,376	0,22
552,802	0,22
553,227	0,22
553,653	0,22
554,078	0,22
554,504	0,22
554,929	0,22
555,355	0,22
555,78	0,22
556,206	0,22
556,631	0,22
557,056	0,22
557,481	0,22
557,906	0,22
558,331	0,22
558,756	0,22
559,181	0,22
559,606	0,22
560,031	0,22
560,456	0,22
560,881	0,22
561,305	0,22
561,73	0,22
562,155	0,22
562,579	0,22
563,004	0,22
563,428	0,22
563,853	0,22
564,277	0,22
564,701	0,22
565,126	0,22
565,55	0,22
565,974	0,22
566,398	0,22
566,822	0,22
567,246	0,22
567,67	0,22
568,094	0,22
568,518	0,22
568,941	0,22
569,365	0,22
569,789	0,22
570,213	0,22
570,636	0,22
571,06	0,22
571,483	0,22
571,907	0,22
572,33	0,22
572,753	0,22
573,177	0,22
573,6	0,22
574,023	0,22
574,446	0,22
574,869	0,22
575,292	0,22
575,715	0,22
576,138	0,22
576,561	0,22
576,984	0,22
577,407	0,22
577,829	0,22
578,252	0,22
578,675	0,22
579,097	0,22
579,52	0,22
579,942	0,22
580,364	0,22
580,787	0,22
581,209	0,22
581,631	0,22
582,054	0,22
582,476	0,22
582,898	0,22
583,32	0,22
583,742	0,22
584,164	0,22
584,586	0,22
585,008	0,22
585,429	0,22
585,851	0,22
586,273	0,22
586,694	0,22
587,116	0,22
587,538	0,22
587,959	0,22
588,38	0,22
588,802	0,22
589,223	0,22
589,644	0,23
590,066	0,23
590,487	0,23
590,908	0,23
591,329	0,23
591,75	0,23
592,171	0,23
592,592	0,23
593,013	0,23
593,434	0,23
593,854	0,23
594,275	0,23
594,696	0,23
595,116	0,23
595,537	0,23
595,957	0,23
596,378	0,23
596,798	0,23
597,218	0,23
597,639	0,24
598,059	0,23
598,479	0,23
598,899	0,23
599,319	0,23
599,739	0,23
600,159	0,23
600,579	0,23
600,999	0,23
601,419	0,23
601,839	0,23
602,259	0,23
602,678	0,24
603,098	0,24
603,517	0,24
603,937	0,23
604,356	0,24
604,776	0,24
605,195	0,24
605,614	0,24
606,034	0,24
606,453	0,24
606,872	0,24
607,291	0,24
607,71	0,24
608,129	0,24
608,548	0,24
608,967	0,24
609,386	0,24
609,805	0,24
610,223	0,24
610,642	0,24
611,061	0,24
611,479	0,25
611,898	0,25
612,316	0,25
612,735	0,25
613,153	0,25
613,571	0,25
613,99	0,25
614,408	0,25
614,826	0,25
615,244	0,25
615,662	0,25
616,08	0,25
616,498	0,25
616,916	0,25
617,334	0,25
617,752	0,25
618,169	0,25
618,587	0,26
619,005	0,26
619,422	0,26
619,84	0,26
620,257	0,26
620,675	0,26
621,092	0,26
621,509	0,26
621,927	0,26
622,344	0,26
622,761	0,26
623,178	0,26
623,595	0,26
624,012	0,26
624,429	0,26
624,846	0,26
625,263	0,26
625,68	0,27
626,097	0,27
626,513	0,27
626,93	0,27
627,346	0,27
627,763	0,27
628,179	0,27
628,596	0,27
629,012	0,27
629,429	0,27
629,845	0,27
630,261	0,27
630,677	0,27
631,093	0,27
631,509	0,27
631,925	0,28
632,341	0,28
632,757	0,28
633,173	0,28
633,589	0,28
634,005	0,28
634,42	0,28
634,836	0,28
635,252	0,28
635,667	0,28
636,083	0,28
636,498	0,28
636,913	0,28
637,329	0,28
637,744	0,28
638,159	0,28
638,574	0,28
638,99	0,28
639,405	0,29
639,82	0,29
640,235	0,29
640,65	0,29
641,064	0,29
641,479	0,29
641,894	0,29
642,309	0,29
642,723	0,29
643,138	0,29
643,552	0,29
643,967	0,29
644,381	0,29
644,796	0,29
645,21	0,29
645,624	0,29
646,038	0,29
646,453	0,29
646,867	0,29
647,281	0,29
647,695	0,29
648,109	0,29
648,523	0,3
648,936	0,29
649,35	0,3
649,764	0,3
650,178	0,3
650,591	0,3
651,005	0,3
651,418	0,3
651,832	0,3
652,245	0,3
652,659	0,3
653,072	0,3
653,485	0,3
653,898	0,3
654,312	0,3
654,725	0,3
655,138	0,3
655,551	0,3
655,964	0,3
656,377	0,3
656,789	0,29
657,202	0,29
657,615	0,3
658,028	0,3
658,44	0,3
658,853	0,3
659,265	0,3
659,678	0,3
660,09	0,3
660,503	0,3
660,915	0,3
661,327	0,3
661,739	0,3
662,152	0,3
662,564	0,3
662,976	0,3
663,388	0,3
663,8	0,3
664,211	0,3
664,623	0,29
665,035	0,29
665,447	0,3
665,858	0,29
666,27	0,29
666,682	0,29
667,093	0,29
667,505	0,29
667,916	0,29
668,327	0,29
668,739	0,29
669,15	0,29
669,561	0,29
669,972	0,29
670,383	0,29
670,794	0,29
671,205	0,29
671,616	0,29
672,027	0,29
672,438	0,29
672,849	0,29
673,259	0,29
673,67	0,29
674,08	0,29
674,491	0,29
674,901	0,29
675,312	0,29
675,722	0,29
676,133	0,29
676,543	0,29
676,953	0,29
677,363	0,29
677,773	0,29
678,183	0,29
678,593	0,29
679,003	0,29
679,413	0,29
679,823	0,29
680,233	0,29
680,643	0,29
681,052	0,29
681,462	0,29
681,872	0,29
682,281	0,29
682,691	0,29
683,1	0,29
683,509	0,29
683,919	0,29
684,328	0,29
684,737	0,29
685,146	0,29
685,555	0,29
685,964	0,29
686,373	0,29
686,782	0,29
687,191	0,29
687,6	0,29
688,009	0,29
688,417	0,29
688,826	0,29
689,235	0,29
689,643	0,29
690,052	0,29
690,46	0,29
690,869	0,29
691,277	0,29
691,685	0,29
692,093	0,29
692,502	0,29
692,91	0,3
693,318	0,3
693,726	0,3
694,134	0,3
694,542	0,3
694,949	0,3
695,357	0,3
695,765	0,3
696,173	0,3
696,58	0,3
696,988	0,3
697,395	0,3
697,803	0,3
698,21	0,3
698,618	0,3
699,025	0,3
699,432	0,3
699,839	0,3
700,247	0,3
700,654	0,3
701,061	0,3
701,468	0,3
701,875	0,3
702,281	0,3
702,688	0,3
703,095	0,3
703,502	0,3
703,908	0,3
704,315	0,3
704,722	0,3
705,128	0,3
705,534	0,3
705,941	0,3
706,347	0,3
706,753	0,3
707,16	0,3
707,566	0,3
707,972	0,3
708,378	0,3
708,784	0,3
709,19	0,3
709,596	0,3
710,002	0,3
710,407	0,3
710,813	0,3
711,219	0,3
711,625	0,3
712,03	0,3
712,436	0,3
712,841	0,3
713,246	0,3
713,652	0,3
714,057	0,3
714,462	0,3
714,868	0,3
715,273	0,3
715,678	0,31
716,083	0,31
716,488	0,3
716,893	0,3
717,297	0,3
717,702	0,3
718,107	0,3
718,512	0,3
718,916	0,31
719,321	0,3
719,725	0,3
720,13	0,3
720,534	0,3
720,939	0,3
721,343	0,3
721,747	0,3
722,151	0,31
722,556	0,3
722,96	0,3
723,364	0,3
723,768	0,3
724,172	0,3
724,576	0,3
724,979	0,3
725,383	0,3
725,787	0,3
726,19	0,3
726,594	0,3
726,998	0,3
727,401	0,3
727,805	0,3
728,208	0,3
728,611	0,3
729,014	0,3
729,418	0,3
729,821	0,3
730,224	0,3
730,627	0,3
731,03	0,3
731,433	0,3
731,836	0,3
732,239	0,3
732,641	0,3
733,044	0,3
733,447	0,3
733,849	0,3
734,252	0,3
734,654	0,3
735,057	0,3
735,459	0,3
735,862	0,3
736,264	0,3
736,666	0,3
737,068	0,3
737,47	0,3
737,872	0,3
738,274	0,3
738,676	0,3
739,078	0,3
739,48	0,3
739,882	0,3
740,284	0,3
740,685	0,3
741,087	0,29
741,488	0,29
741,89	0,3
742,291	0,29
742,693	0,29
743,094	0,29
743,495	0,29
743,897	0,29
744,298	0,29
744,699	0,29
745,1	0,29
745,501	0,29
745,902	0,29
746,303	0,29
746,704	0,29
747,105	0,29
747,505	0,29
747,906	0,29
748,307	0,29
748,707	0,29
749,108	0,29
749,508	0,28
749,908	0,28
750,309	0,28
750,709	0,28
751,109	0,28
751,51	0,28
751,91	0,28
752,31	0,28
752,71	0,28
753,11	0,28
753,51	0,28
753,909	0,28
754,309	0,28
754,709	0,28
755,109	0,28
755,508	0,28
755,908	0,28
756,307	0,28
756,707	0,28
757,106	0,28
757,505	0,27
757,905	0,28
758,304	0,27
758,703	0,27
759,102	0,27
759,501	0,27
759,9	0,27
760,299	0,27
760,698	0,27
761,097	0,27
761,496	0,27
761,895	0,27
762,293	0,27
762,692	0,27
763,09	0,27
763,489	0,27
763,887	0,27
764,286	0,26
764,684	0,27
765,082	0,26
765,481	0,26
765,879	0,26
766,277	0,26
766,675	0,26
767,073	0,26
767,471	0,26
767,869	0,26
768,267	0,26
768,664	0,26
769,062	0,26
769,46	0,26
769,857	0,26
770,255	0,26
770,653	0,26
771,05	0,26
771,447	0,26
771,845	0,26
772,242	0,26
772,639	0,25
773,036	0,25
773,433	0,25
773,831	0,25
774,228	0,25
774,624	0,25
775,021	0,25
775,418	0,25
775,815	0,25
776,212	0,25
776,608	0,25
777,005	0,25
777,401	0,25
777,798	0,25
778,194	0,25
778,591	0,25
778,987	0,25
779,383	0,25
779,78	0,25
780,176	0,25
780,572	0,25
780,968	0,25
781,364	0,24
781,76	0,24
782,156	0,24
782,551	0,24
782,947	0,24
783,343	0,24
783,739	0,24
784,134	0,24
784,53	0,24
784,925	0,24
785,321	0,24
785,716	0,24
786,111	0,24
786,507	0,24
786,902	0,24
787,297	0,24
787,692	0,24
788,087	0,23
788,482	0,23
788,877	0,23
789,272	0,23
789,667	0,23
790,061	0,23
790,456	0,23
790,851	0,23
791,245	0,23
791,64	0,23
792,034	0,23
792,429	0,23
792,823	0,23
793,217	0,23
793,612	0,23
794,006	0,23
794,4	0,23
794,794	0,23
795,188	0,23
795,582	0,23
795,976	0,23
796,37	0,23
796,763	0,23
797,157	0,22
797,551	0,22
797,944	0,22
798,338	0,22
798,731	0,22
799,125	0,22
799,518	0,22
799,912	0,22
800,305	0,22
800,698	0,22
801,091	0,22
801,484	0,22
801,877	0,22
802,27	0,22
802,663	0,22
803,056	0,22
803,449	0,22
803,842	0,22
804,235	0,22
804,627	0,22
805,02	0,22
805,412	0,22
805,805	0,22
806,197	0,22
806,59	0,22
806,982	0,22
807,374	0,22
807,766	0,22
808,159	0,21
808,551	0,21
808,943	0,21
809,335	0,21
809,727	0,21
810,118	0,21
810,51	0,21
810,902	0,21
811,294	0,21
811,685	0,21
812,077	0,21
812,468	0,21
812,86	0,21
813,251	0,21
813,643	0,21
814,034	0,21
814,425	0,21
814,816	0,21
815,207	0,21
815,598	0,21
815,989	0,21
816,38	0,21
816,771	0,21
817,162	0,21
817,553	0,21
817,944	0,21
818,334	0,21
818,725	0,21
819,115	0,21
819,506	0,21
819,896	0,21
820,287	0,21
820,677	0,21
821,067	0,2
821,457	0,2
821,848	0,2
822,238	0,2
822,628	0,21
823,018	0,2
823,408	0,2
823,797	0,2
824,187	0,2
824,577	0,2
824,967	0,2
825,356	0,2
825,746	0,2
826,135	0,2
826,525	0,2
826,914	0,2
827,304	0,2
827,693	0,2
828,082	0,2
828,471	0,2
828,86	0,2
829,249	0,2
829,638	0,2
830,027	0,2
830,416	0,2
830,805	0,2
831,194	0,2
831,582	0,2
831,971	0,2
832,36	0,2
832,748	0,2
833,137	0,2
833,525	0,2
833,914	0,2
834,302	0,2
834,69	0,2
835,078	0,2
835,466	0,2
835,854	0,2
836,243	0,2
836,63	0,2
837,018	0,2
837,406	0,2
837,794	0,2
838,182	0,2
838,569	0,2
838,957	0,2
839,345	0,2
839,732	0,2
840,12	0,2
840,507	0,2
840,894	0,2
841,282	0,19
841,669	0,2
842,056	0,2
842,443	0,2
842,83	0,19
843,217	0,19
843,604	0,19
843,991	0,19
844,378	0,19
844,764	0,19
845,151	0,19
845,538	0,19
845,924	0,19
846,311	0,19
846,697	0,19
847,084	0,19
847,47	0,19
847,856	0,19
848,242	0,19
848,629	0,19
849,015	0,19
849,401	0,19
849,787	0,19
850,173	0,19
850,559	0,19
850,944	0,19
851,33	0,19
851,716	0,19
852,102	0,19
852,487	0,19
852,873	0,19
853,258	0,19
853,644	0,19
854,029	0,19
854,414	0,19
854,799	0,19
855,185	0,19
855,57	0,19
855,955	0,19
856,34	0,19
856,725	0,19
857,11	0,19
857,495	0,19
857,879	0,19
858,264	0,19
858,649	0,19
859,033	0,19
859,418	0,19
859,802	0,19
860,187	0,19
860,571	0,19
860,955	0,19
861,34	0,19
861,724	0,19
862,108	0,19
862,492	0,19
862,876	0,19
863,26	0,19
863,644	0,18
864,028	0,19
864,412	0,18
864,795	0,19
865,179	0,19
865,563	0,19
865,946	0,18
866,33	0,18
866,713	0,19
867,097	0,19
867,48	0,18
867,863	0,19
868,246	0,18
868,629	0,18
869,013	0,19
869,396	0,18
869,779	0,19
870,161	0,19
870,544	0,18
870,927	0,19
871,31	0,19
871,693	0,18
872,075	0,19
872,458	0,19
872,84	0,19
873,223	0,18
873,605	0,18
873,987	0,18
874,37	0,18
874,752	0,18
875,134	0,18
875,516	0,18
875,898	0,19
876,28	0,18
876,662	0,18
877,044	0,19
877,426	0,19
877,807	0,19
878,189	0,19
878,571	0,18
878,952	0,18
879,334	0,19
879,715	0,18
880,097	0,18
880,478	0,19
880,859	0,19
881,24	0,19
881,622	0,19
882,003	0,19
882,384	0,19
882,765	0,19
883,146	0,19
883,526	0,19
883,907	0,19
884,288	0,19
884,669	0,19
885,049	0,19
885,43	0,19
885,81	0,19
886,191	0,19
886,571	0,19
886,952	0,19
887,332	0,19
887,712	0,19
888,092	0,19
888,472	0,19
888,852	0,19
889,232	0,19
889,612	0,19
889,992	0,19
890,372	0,19
890,752	0,19
891,131	0,19
891,511	0,2
891,89	0,2
892,27	0,2
892,649	0,2
893,029	0,2
893,408	0,2
893,787	0,2
894,167	0,19
894,546	0,2
894,925	0,19
895,304	0,2
895,683	0,2
896,062	0,2
896,441	0,19
896,819	0,2
897,198	0,2
897,577	0,2
897,955	0,2
898,334	0,2
898,712	0,2
899,091	0,2
899,469	0,2
899,848	0,2
900,226	0,2
900,604	0,2
900,982	0,2
901,36	0,2
901,738	0,2
902,116	0,2
902,494	0,2
902,872	0,2
903,25	0,2
903,628	0,2
904,005	0,2
904,383	0,2
904,76	0,21
905,138	0,21
905,515	0,21
905,893	0,21
906,27	0,21
906,647	0,21
907,024	0,21
907,402	0,21
907,779	0,21
908,156	0,21
908,533	0,21
908,91	0,21
909,286	0,21
909,663	0,21
910,04	0,21
910,417	0,22
910,793	0,21
911,17	0,22
911,546	0,22
911,923	0,22
912,299	0,22
912,675	0,22
913,051	0,22
913,428	0,22
913,804	0,22
914,18	0,22
914,556	0,22
914,932	0,22
915,308	0,22
915,683	0,22
916,059	0,23
916,435	0,23
916,811	0,23
917,186	0,23
917,562	0,23
917,937	0,23
918,313	0,23
918,688	0,23
919,063	0,23
919,438	0,23
919,814	0,23
920,189	0,23
920,564	0,23
920,939	0,23
921,314	0,23
921,689	0,23
922,063	0,24
922,438	0,24
922,813	0,24
923,187	0,24
923,562	0,24
923,936	0,24
924,311	0,24
924,685	0,24
925,06	0,24
925,434	0,24
925,808	0,24
926,182	0,24
926,556	0,24
926,93	0,24
927,304	0,24
927,678	0,25
928,052	0,25
928,426	0,24
928,8	0,24
929,173	0,25
929,547	0,25
929,92	0,25
930,294	0,25
930,667	0,25
931,041	0,25
931,414	0,25
931,787	0,25
932,161	0,25
932,534	0,25
932,907	0,25
933,28	0,26
933,653	0,26
934,026	0,26
934,398	0,26
934,771	0,25
935,144	0,26
935,517	0,26
935,889	0,26
936,262	0,26
936,634	0,26
937,007	0,26
937,379	0,26
937,751	0,26
938,123	0,26
938,496	0,26
938,868	0,26
939,24	0,26
939,612	0,27
939,984	0,26
940,355	0,27
940,727	0,26
941,099	0,27
941,471	0,27
941,842	0,27
942,214	0,27
942,585	0,27
942,957	0,27
943,328	0,26
943,7	0,27
944,071	0,27
944,442	0,27
944,813	0,27
945,184	0,27
945,555	0,27
945,926	0,27
946,297	0,27
946,668	0,28
947,039	0,28
947,409	0,27
947,78	0,28
948,151	0,27
948,521	0,28
948,892	0,27
949,262	0,28
949,633	0,28
950,003	0,28
950,373	0,28
950,743	0,27
951,113	0,28
951,483	0,27
951,853	0,28
952,223	0,28
952,593	0,28
952,963	0,28
953,333	0,28
953,702	0,28
954,072	0,28
954,442	0,28
954,811	0,29
955,181	0,28
955,55	0,29
955,919	0,28
956,289	0,28
956,658	0,29
957,027	0,28
957,396	0,28
957,765	0,29
958,134	0,29
958,503	0,29
958,872	0,27
959,24	0,28
959,609	0,28
959,978	0,29
960,346	0,28
960,715	0,29
961,083	0,29
961,452	0,28
961,82	0,29
962,188	0,28
962,557	0,29
962,925	0,29
963,293	0,27
963,661	0,29
964,029	0,28
964,397	0,29
964,765	0,28
965,133	0,28
965,5	0,27
965,868	0,27
966,236	0,28
966,603	0,27
966,971	0,28
967,338	0,28
967,706	0,26
968,073	0,28
968,44	0,28
968,807	0,28
969,174	0,27
969,542	0,27
969,909	0,26
970,275	0,27
970,642	0,27
971,009	0,26
971,376	0,27
971,743	0,27
972,109	0,27
972,476	0,26
972,842	0,27
973,209	0,27
973,575	0,28
973,942	0,27
974,308	0,26
974,674	0,27
975,04	0,27
975,406	0,26
975,772	0,27
976,138	0,26
976,504	0,25
976,87	0,27
977,236	0,26
977,602	0,26
977,967	0,28
978,333	0,25
978,698	0,27
979,064	0,26
979,429	0,26
979,795	0,28
980,16	0,27
980,525	0,27
980,89	0,26
981,255	0,27
981,621	0,26
981,986	0,27
982,35	0,27
982,715	0,26
983,08	0,28
983,445	0,26
983,81	0,28
984,174	0,26
984,539	0,26
984,903	0,25
985,268	0,28
985,632	0,28
985,996	0,27
986,361	0,27
986,725	0,26
987,089	0,27
987,453	0,26
987,817	0,27
988,181	0,24
988,545	0,28
988,909	0,27
989,272	0,27
989,636	0,27
990	0,28
990,363	0,26
990,727	0,27
991,09	0,26
991,454	0,26
991,817	0,28
992,18	0,27
992,543	0,27
992,907	0,27
993,27	0,25
993,633	0,27
993,996	0,27
994,359	0,26
994,721	0,28
995,084	0,27
995,447	0,25
995,81	0,28
996,172	0,26
996,535	0,26
996,897	0,26
997,259	0,27
997,622	0,25
997,984	0,25
998,346	0,28
998,708	0,27
999,071	0,28
999,433	0,27
999,795	0,29
1000,156	0,27
1000,518	0,26
1000,88	0,28
1001,242	0,26
1001,603	0,27
1001,965	0,28
1002,327	0,27
1002,688	0,28
1003,049	0,26
1003,411	0,26
1003,772	0,25
1004,133	0,29
1004,495	0,26
1004,856	0,26
1005,217	0,28
1005,578	0,27
1005,939	0,27
1006,299	0,27
1006,66	0,27
1007,021	0,27
1007,382	0,27
1007,742	0,26
1008,103	0,27
1008,463	0,25
1008,824	0,27
1009,184	0,27
1009,544	0,28
1009,904	0,26
1010,265	0,25
1010,625	0,27
1010,985	0,26
1011,345	0,26
1011,705	0,26
1012,065	0,28
1012,424	0,27
1012,784	0,26
1013,144	0,28
1013,503	0,26
1013,863	0,28
1014,222	0,27
1014,582	0,24
1014,941	0,27
1015,3	0,26
1015,66	0,25
1016,019	0,29
1016,378	0,26
1016,737	0,25
1017,096	0,27
1017,455	0,26
1017,814	0,27
1018,173	0,25
1018,531	0,3
1018,89	0,28
1019,249	0,25
1019,607	0,28
1019,966	0,29
1020,324	0,25
1020,682	0,26
1021,041	0,28
1021,399	0,28
1021,757	0,27
1022,115	0,27
1022,473	0,29
1022,831	0,26
1023,189	0,26
1023,547	0,26
1023,905	0,29
1024,263	0,27
1024,62	0,25
1024,978	0,27
1025,335	0,26
1025,693	0,27
1026,05	0,23
1026,408	0,25
1026,765	0,3
1027,122	0,25
1027,479	0,29
1027,837	0,27
1028,194	0,26
1028,551	0,27
1028,908	0,26
1029,264	0,26
1029,621	0,27
1029,978	0,26
1030,335	0,25
1030,691	0,29
1031,048	0,24
1031,404	0,25
1031,761	0,27
1032,117	0,26
1032,473	0,27
1032,83	0,26
1033,186	0,24
1033,542	0,26
1033,898	0,26
1034,254	0,26
1034,61	0,26
1034,966	0,26
