Data from Subt2_15-59-45-235.txt Node
Date: Wed Apr 21 15:59:45 CEST 2021
User: au643642
Spectrometer: FLMS05507
Trigger mode: 0
Integration Time (sec): 1,000000E-3
Scans to average: 10
Electric dark correction enabled: true
Nonlinearity correction enabled: false
Boxcar width: 0
XAxis mode: Pixels
Number of Pixels in Spectrum: 2048
>>>>>Begin Spectral Data<<<<<
0	40,49
1	40,49
2	40,49
3	84,26
4	80,51
5	-3,51
6	33,24
7	-4,68
8	-56,88
9	26,68
10	-26,45
11	-40,02
12	-35,11
13	1,17
14	109,07
15	0,47
16	23,41
17	16,85
18	-30,43
19	-44
20	30,19
21	13,81
22	-75,13
23	35,58
24	272,44
25	228,67
26	229,14
27	340,08
28	248,1
29	245,29
30	204,56
31	155,41
32	238,97
33	197,07
34	218,14
35	166,18
36	204,8
37	236,86
38	213,69
39	254,18
40	220,01
41	187,71
42	207,14
43	224,93
44	254,88
45	205,26
46	212,29
47	267,29
48	145,35
49	218,37
50	289,06
51	164,54
52	162,67
53	175,54
54	248,8
55	179,29
56	168,05
57	194,03
58	181,39
59	255,59
60	249,27
61	180,46
62	207,84
63	212,75
64	179,99
65	157,05
66	195,9
67	91,75
68	137,16
69	231,48
70	292,1
71	193,33
72	241,78
73	211,58
74	166,65
75	152,84
76	254,65
77	239,44
78	203,16
79	190,99
80	216,5
81	180,69
82	258,4
83	222,35
84	255,59
85	221,88
86	259,33
87	181,39
88	195,2
89	191,69
90	204,8
91	212,52
92	291,63
93	212,52
94	140,9
95	250,44
96	159,16
97	235,93
98	225,63
99	190,75
100	145,82
101	138,09
102	198,48
103	202,69
104	140,9
105	194,03
106	188,18
107	150,26
108	158,69
109	196,84
110	179,29
111	243,65
112	201,29
113	242,48
114	150,5
115	261,91
116	202,22
117	264,01
118	212,99
119	195,67
120	199,41
121	234,76
122	193,09
123	270,57
124	201,52
125	273,14
126	238,73
127	205,73
128	187,24
129	201,29
130	208,54
131	181,39
132	165,71
133	172,03
134	167,82
135	137,62
136	185,84
137	226,33
138	216,73
139	179,05
140	255,82
141	167,58
142	259,8
143	144,41
144	255,35
145	174,6
146	176,94
147	132,47
148	211,12
149	224,22
150	173,9
151	200,82
152	123,11
153	204,8
154	225,63
155	161,5
156	168,05
157	202,22
158	247,39
159	271,03
160	193,33
161	264,71
162	136,22
163	225,63
164	152,37
165	215,8
166	221,65
167	123,11
168	226,33
169	245,05
170	183,97
171	116,09
172	179,52
173	125,92
174	197,07
175	256,99
176	176,48
177	168,52
178	150,03
179	243,88
180	171,56
181	156,82
182	223,76
183	146,52
184	193,8
185	190,52
186	235,93
187	147,45
188	149,09
189	190,75
190	243,18
191	186,31
192	182,09
193	159,86
194	187,71
195	181,16
196	135,75
197	154,71
198	147,45
199	207,84
200	184,2
201	184,43
202	249,27
203	157,99
204	146,05
205	244,12
206	162,43
207	180,22
208	152,13
209	152,6
210	157,05
211	108,83
212	147,22
213	199,65
214	229,61
215	215,8
216	185,37
217	147,92
218	210,88
219	202,92
220	206,44
221	198,48
222	267,76
223	223,29
224	171,09
225	171,8
226	156,35
227	168,99
228	204,8
229	231,71
230	183,73
231	172,73
232	219,78
233	245,52
234	216,03
235	219,54
236	202,69
237	208,07
238	192,16
239	244,12
240	130,84
241	226,8
242	178,35
243	209,48
244	191,69
245	200,82
246	235,69
247	181,16
248	196,6
249	241,78
250	220,24
251	186,31
252	185,14
253	155,18
254	187,95
255	187,24
256	151,43
257	208,07
258	244,59
259	172,73
260	266,12
261	139,26
262	199,41
263	194,26
264	167,35
265	262,61
266	190,99
267	196,14
268	254,18
269	160,33
270	167,58
271	176,48
272	130,37
273	214,39
274	219,07
275	206,9
276	149,09
277	192,16
278	222,35
279	193,8
280	238,97
281	234,76
282	196,14
283	191,46
284	162,9
285	231,48
286	172,73
287	203,63
288	247,63
289	165,94
290	214,86
291	242,71
292	223,29
293	272,91
294	224,22
295	265,88
296	268,69
297	283,44
298	243,18
299	377,53
300	219,07
301	195,43
302	299,59
303	357,4
304	239,2
305	264,71
306	280,16
307	304,04
308	309,89
309	237,8
310	359,27
311	339,14
312	265,88
313	371,44
314	371,44
315	411
316	388,29
317	381,51
318	388,53
319	422
320	428,55
321	438,85
322	415,91
323	416,15
324	480,98
325	517,02
326	483,32
327	510
328	592,16
329	557,28
330	569,92
331	558,69
332	675,01
333	583,5
334	577,18
335	593,09
336	694,2
337	650,2
338	641,31
339	657,92
340	705,91
341	747,1
342	746,4
343	766,53
344	770,97
345	818,02
346	863,19
347	835,1
348	849,38
349	844,47
350	915,85
351	903,45
352	927,79
353	984,2
354	941,13
355	886,59
356	1053,48
357	946,04
358	1045,05
359	1101,92
360	1061,67
361	1133,99
362	1138,9
363	1151,54
364	1269,97
365	1227,14
366	1180,57
367	1249,38
368	1210,76
369	1287,76
370	1278,4
371	1329,89
372	1373,19
373	1396,6
374	1346,28
375	1373,89
376	1422,34
377	1542,88
378	1524,62
379	1532,35
380	1559,03
381	1529,54
382	1622,46
383	1627,61
384	1621,99
385	1716,08
386	1700,87
387	1779,98
388	1738,08
389	1796,13
390	1791,45
391	1805,96
392	1807,36
393	1820,23
394	1891,86
395	1947,09
396	2015,67
397	2028,54
398	2075,59
399	2059,67
400	2122,87
401	2134,1
402	2168,51
403	2194,72
404	2162,89
405	2256,98
406	2256,04
407	2287,64
408	2277,11
409	2338,9
410	2395,77
411	2451,71
412	2425,03
413	2478,63
414	2545,1
415	2493,84
416	2595,89
417	2561,25
418	2515,84
419	2592,85
420	2669,85
421	2708,94
422	2777,05
423	2758,09
424	2822,45
425	2821,98
426	2891,73
427	2899,92
428	2957,5
429	2933,86
430	2924,73
431	3049,72
432	2960,78
433	3045,51
434	3076,87
435	3139,59
436	3181,02
437	3237,43
438	3214,26
439	3215,19
440	3272,07
441	3274,64
442	3270,66
443	3438,48
444	3390,73
445	3395,88
446	3540,06
447	3426,08
448	3474,53
449	3552,7
450	3675,81
451	3663,41
452	3674,17
453	3738,3
454	3709,05
455	3735,96
456	3818,35
457	3802,43
458	3878,5
459	3904,48
460	3864,46
461	3913,84
462	4051,47
463	4034,15
464	4115,36
465	4148,6
466	4175,52
467	4330,69
468	4237,31
469	4214,6
470	4310,8
471	4278,97
472	4358,31
473	4404,19
474	4501,08
475	4572,7
476	4504,36
477	4578,09
478	4665,62
479	4744,5
480	4727,65
481	4701,2
482	4772,12
483	4893,36
484	4807,93
485	4935,02
486	4979,49
487	4920,51
488	5007,81
489	4996,11
490	5112,43
491	5209,8
492	5179,84
493	5204,42
494	5213,31
495	5272,52
496	5366,15
497	5390,72
498	5433,79
499	5398,91
500	5584,75
501	5463,75
502	5572,58
503	5552,69
504	5602,31
505	5618,22
506	5691,71
507	5829,81
508	5921,56
509	5788,38
510	5995,28
511	5993,88
512	6085,86
513	6191,89
514	6155,84
515	6241,04
516	6138,05
517	6340,04
518	6335,6
519	6262,34
520	6492,41
521	6544,61
522	6543,44
523	6589,08
524	6590,01
525	6721,32
526	6717,34
527	6869,24
528	6709,85
529	6796,45
530	6870,41
531	6787,32
532	6887,03
533	7040,1
534	6955,37
535	7028,16
536	6964,97
537	7047,59
538	7258,94
539	7207,68
540	7278,13
541	7327,52
542	7393,52
543	7337,35
544	7564,38
545	7479,65
546	7360,05
547	7370,35
548	7387,67
549	7536,76
550	7797,03
551	7844,54
552	8093,81
553	8119,55
554	8023,12
555	8167,77
556	8221,37
557	8277,3
558	8450,97
559	8345,88
560	8643,6
561	8591,4
562	8687,83
563	8524
564	8513,46
565	8969,64
566	8990,93
567	9057,87
568	9099,77
569	9134,88
570	9380,63
571	9440,55
572	9260,8
573	9086,43
574	9609,77
575	9860,68
576	9419,02
577	9632,24
578	9689,12
579	9663,14
580	9789,99
581	9973,02
582	9920,36
583	9887,83
584	10176,42
585	10208,25
586	10555,58
587	10574,54
588	10385,66
589	10645,22
590	10685,48
591	10783,55
592	10575,71
593	10760,38
594	10788
595	10974,07
596	10932,88
597	10939,9
598	10959,09
599	10844,64
600	11310,64
601	11075,65
602	11519,65
603	11615,38
604	11737,55
605	11680,68
606	12073,19
607	12024,74
608	12208,94
609	12158,85
610	12411,86
611	12585,76
612	12719,41
613	12800,39
614	12841,35
615	12884,18
616	13362,35
617	13268,5
618	13482,19
619	13404,01
620	13458,08
621	13781,31
622	14315,65
623	14461,23
624	14524,43
625	14632,09
626	15123,14
627	14922,32
628	15287,91
629	15460,41
630	16002,94
631	15891,77
632	16156,25
633	16413,24
634	16570,29
635	17025,06
636	17507,68
637	17894,8
638	18131,43
639	18248,45
640	18895,85
641	18860,97
642	19548,62
643	19631,01
644	19855,93
645	20262,49
646	20699
647	20908,01
648	21241,3
649	21743,11
650	21950,01
651	22249,83
652	22585,47
653	22737,37
654	23285,29
655	23650,41
656	23780,08
657	23943,21
658	24325,66
659	24875,92
660	24908,22
661	25061,75
662	25362,28
663	25742,85
664	25857,54
665	26151,51
666	26398,67
667	26649,34
668	26841,97
669	27010,48
670	27441,85
671	27607,32
672	27780,75
673	27928,91
674	28399,36
675	28307,38
676	28804,5
677	28916,85
678	29070,62
679	29523,28
680	29594,9
681	29980,39
682	30043,82
683	30300,34
684	30494,84
685	30649,32
686	30890,86
687	31142,7
688	31288,28
689	31562,36
690	31584,59
691	31765,28
692	32223,09
693	32094,36
694	32318,35
695	32655,39
696	32797,93
697	32911,68
698	33003,19
699	33350,53
700	33517,64
701	33511,09
702	33916,47
703	34092,01
704	34381,07
705	34465,32
706	34888,49
707	34780,13
708	34802,13
709	35284,98
710	35432,9
711	35755,19
712	35941,27
713	35863,56
714	36069,76
715	36348,52
716	36619,79
717	36620,26
718	36850,8
719	37193,69
720	36848,93
721	37709,07
722	37528,38
723	37759,39
724	37856,76
725	38249,03
726	38112,11
727	38399,53
728	38627,03
729	38749,68
730	39001,98
731	38952,6
732	39323,57
733	39359,85
734	39515,73
735	39817,19
736	39593,91
737	40297
738	39830,53
739	40193,55
740	40194,49
741	40348,5
742	40682,49
743	40824,79
744	40835,79
745	41054,4
746	40909,99
747	40910,46
748	41108,94
749	40877,69
750	41198,34
751	41287,52
752	41200,45
753	41397,76
754	41366,16
755	41736,2
756	41606,3
757	41793,31
758	41866,57
759	42047,26
760	41811,56
761	41859,08
762	41948,02
763	42155,15
764	42159,37
765	42282,01
766	42600,09
767	42589,09
768	42708,69
769	42871,83
770	42933,62
771	43182,88
772	43171,18
773	43053,92
774	43356,79
775	43416,47
776	43211,44
777	43683,99
778	43331,51
779	43879,66
780	43791,66
781	43968,84
782	44150,93
783	43938,41
784	44260
785	44349,88
786	44299,09
787	44516,29
788	44520,97
789	44639,17
790	44726,94
791	44787,79
792	44474,39
793	45029,57
794	44924,01
795	45577,72
796	45244,19
797	45500,01
798	45652,38
799	45560,4
800	45676,26
801	45739,92
802	45850,63
803	46015,17
804	46240,33
805	46201,94
806	46326,22
807	46250,86
808	46763,67
809	46602,64
810	46581,58
811	46637,75
812	46760,16
813	46807,91
814	47033,07
815	47162,96
816	47329,38
817	47434,7
818	47310,89
819	47444,3
820	47479,41
821	47958,28
822	47646,99
823	47853,66
824	48143,42
825	48065,71
826	48128,44
827	48006,96
828	48133,82
829	48416,56
830	48322,23
831	48229,31
832	48476,01
833	48340,02
834	48820,53
835	48397,36
836	48574,31
837	48784,96
838	48605,91
839	48849,32
840	48904,09
841	48730,66
842	48656,23
843	49206,49
844	48964,01
845	48933,35
846	49335,92
847	49477,75
848	49573,48
849	49506,31
850	49587,76
851	49607,42
852	49901,86
853	50116,49
854	50083,25
855	50424,97
856	50559,32
857	50924,44
858	50904,08
859	51398,63
860	51377,33
861	51675,52
862	51639,94
863	51838,89
864	51878,68
865	51769,37
866	51866,51
867	51736,14
868	52008,81
869	51805,18
870	51860,42
871	51479,15
872	51657,03
873	51389,97
874	51161,77
875	50983,66
876	50838,54
877	50738,84
878	50529,83
879	50392,2
880	50298,81
881	50223,22
882	50014,67
883	49915,67
884	49989,86
885	49802,86
886	49572,08
887	49907,95
888	49487,35
889	49408,47
890	49450,6
891	49359,56
892	49260,08
893	49225,91
894	49271,79
895	48964,01
896	49373,13
897	49269,45
898	49310,41
899	49270,38
900	49434,22
901	49453,88
902	49536,5
903	49758,38
904	49634,57
905	50003,91
906	49887,82
907	50312,86
908	50297,18
909	50494,25
910	50496,12
911	50758,96
912	50923,97
913	51237,6
914	51465,1
915	51853,16
916	51966,68
917	52226,95
918	52518,58
919	52678,44
920	52884,87
921	52967,03
922	53441,92
923	53447,77
924	53836,3
925	53843,32
926	53920,33
927	53968,31
928	53917,75
929	54005,52
930	54295,05
931	53954,73
932	53877,03
933	54071,29
934	53991,48
935	53632,44
936	53613,95
937	53158,25
938	53256,32
939	53420,62
940	52813,02
941	52441,34
942	52609,86
943	52251,06
944	51957,55
945	51918
946	51655,62
947	51648,37
948	51265,92
949	50873,42
950	51200,15
951	50562,12
952	50325,73
953	50509,23
954	50238,43
955	50061,25
956	49767,51
957	49649,55
958	49585,19
959	49347,85
960	49324,22
961	49045,93
962	49115,44
963	48861,96
964	48800,64
965	48459,62
966	48656,23
967	48295,55
968	48408,83
969	48243,36
970	48105,97
971	47958,04
972	47926,45
973	47597,84
974	47708,08
975	47819,95
976	47621,24
977	47249,33
978	47259,86
979	47139,79
980	47097,66
981	47095,56
982	47015,75
983	46887,02
984	46648,98
985	46530,55
986	46446,06
987	46270,52
988	46219,73
989	45995,27
990	46182,75
991	46402,52
992	45965,78
993	46058,93
994	45879,65
995	45888,31
996	45591,3
997	45760,05
998	45510,78
999	45492,52
1000	45436,12
1001	45190,83
1002	45367,54
1003	45243,49
1004	45133,02
1005	45165,79
1006	44896,16
1007	45149,17
1008	44955,61
1009	44903,41
1010	44719,68
1011	44937,35
1012	44758,3
1013	44564,97
1014	44665,85
1015	44455,43
1016	44606,4
1017	44207,8
1018	44399,96
1019	44450,75
1020	44186,74
1021	43993,18
1022	44391,54
1023	44039,75
1024	44042,8
1025	43957,37
1026	43886,21
1027	43657,08
1028	43916,88
1029	43555,73
1030	43761
1031	43689,61
1032	43428,41
1033	43647,25
1034	43364,51
1035	43502,84
1036	43174,93
1037	43445,49
1038	43275,34
1039	43361,47
1040	43427,94
1041	43323,55
1042	43104,24
1043	43228,76
1044	42830,17
1045	43111,26
1046	43110,8
1047	42949,06
1048	42877,68
1049	42853,8
1050	42838,59
1051	42686,22
1052	42735,37
1053	42485,64
1054	42480,26
1055	42227,95
1056	42426,66
1057	42477,45
1058	42633,79
1059	42109,05
1060	42181,13
1061	42184,18
1062	42087,28
1063	42144,15
1064	41967,44
1065	42074,17
1066	41684
1067	41901,21
1068	41646,09
1069	42115,13
1070	41707,88
1071	41377,86
1072	41523,44
1073	41277,22
1074	41345,1
1075	41509,4
1076	40981,84
1077	41047,38
1078	40826,43
1079	41060,95
1080	41024,44
1081	40609,46
1082	40774,94
1083	40873,48
1084	40631,93
1085	40481,91
1086	40590,04
1087	40123,34
1088	40325,09
1089	39944,75
1090	39909,18
1091	39713,74
1092	39692,68
1093	39384,19
1094	39318,66
1095	39327,09
1096	39035,92
1097	39230,66
1098	38895,49
1099	39112,22
1100	38732,12
1101	38640,37
1102	38339,38
1103	38245,06
1104	38484,02
1105	38105,09
1106	38159,16
1107	38021,53
1108	37618,26
1109	37626,22
1110	37335,29
1111	37536,81
1112	37061,21
1113	36873,27
1114	36855,25
1115	36853,84
1116	36584,91
1117	36440,27
1118	35999,78
1119	36252,09
1120	36243,2
1121	35997,91
1122	35765,73
1123	35602,36
1124	35556,95
1125	35434,54
1126	35517,63
1127	35136,36
1128	35175,21
1129	34678,78
1130	34998,5
1131	34587,27
1132	34660,53
1133	34517,28
1134	34106,29
1135	34112,84
1136	33867,08
1137	33859,13
1138	33789,85
1139	33626,71
1140	33527,94
1141	33269,31
1142	33206,58
1143	33253,4
1144	33044,62
1145	32758,61
1146	32707,58
1147	32891,31
1148	32600,85
1149	32311,8
1150	32196,41
1151	32055,04
1152	32110,98
1153	31865,46
1154	31930,06
1155	31728,77
1156	31817,94
1157	31503,14
1158	31502,21
1159	31335,09
1160	31349,14
1161	31169,62
1162	31214,09
1163	30702,68
1164	30987,52
1165	30850,84
1166	30905,84
1167	30919,41
1168	30448,5
1169	30416,43
1170	30250,49
1171	30547,03
1172	30468,86
1173	30065,59
1174	29916,26
1175	29988,82
1176	29714,51
1177	29675,89
1178	29706,31
1179	29842,3
1180	29675,18
1181	29762,49
1182	29310,06
1183	29623,93
1184	29356,17
1185	29145,29
1186	28947,75
1187	29265,12
1188	28763,31
1189	28987,3
1190	28893,21
1191	29149,73
1192	28765,65
1193	28455,53
1194	28819,95
1195	28831,19
1196	28394,68
1197	28343,65
1198	28505,38
1199	28424,17
1200	28153,13
1201	28506,79
1202	27926,1
1203	27980,64
1204	27837,86
1205	27872,74
1206	27716,62
1207	27835,99
1208	27642,9
1209	27657,41
1210	27482,57
1211	27331,61
1212	27280,11
1213	26993,16
1214	27032,49
1215	27004,16
1216	27038,57
1217	26839,86
1218	26446,18
1219	27046,53
1220	26759,34
1221	26523,42
1222	26590,36
1223	26499,08
1224	26400,31
1225	26386,97
1226	26345,07
1227	26147,06
1228	26227,58
1229	25886,32
1230	26074,97
1231	25981,12
1232	25880,24
1233	25768,36
1234	25894,28
1235	25755,96
1236	25636,82
1237	25688,08
1238	25538,52
1239	25706,81
1240	25590,01
1241	25534,31
1242	25513,24
1243	25343,32
1244	25566,37
1245	25443,96
1246	25473,92
1247	25359
1248	25376,56
1249	25082,59
1250	25249,47
1251	25258,59
1252	25066,2
1253	25104,35
1254	24999,73
1255	24856,96
1256	24927,41
1257	24815,06
1258	24834,49
1259	24697,57
1260	24734,08
1261	24513,6
1262	24474,28
1263	24340,17
1264	24431,68
1265	24405,7
1266	24197,63
1267	24402,89
1268	24129,05
1269	23796,23
1270	24059,3
1271	23960,53
1272	23912,32
1273	23848,19
1274	23539,7
1275	23627,24
1276	23700,73
1277	23410,51
1278	23344,97
1279	23263,29
1280	23116,54
1281	23297,22
1282	23190,03
1283	23229,11
1284	22698,52
1285	22590,62
1286	22908,23
1287	22751,65
1288	22299,92
1289	22408,52
1290	22306,24
1291	22169,79
1292	22261,77
1293	22224,79
1294	22238,37
1295	22140,53
1296	22117,59
1297	22131,17
1298	22263,64
1299	22147,09
1300	22070,32
1301	22027,02
1302	22198,58
1303	22472,89
1304	22141,7
1305	22201,62
1306	22104,02
1307	22299,92
1308	21966,63
1309	21974,12
1310	21984,18
1311	21852,41
1312	21789,69
1313	21610,17
1314	21686,23
1315	21508,59
1316	21363,71
1317	21414,97
1318	21047,97
1319	20928,6
1320	20688,93
1321	20641,18
1322	20467,52
1323	20407,36
1324	20093,97
1325	19902,51
1326	19744,76
1327	19571,33
1328	19365,12
1329	19296,78
1330	19039,32
1331	18907,08
1332	18920,19
1333	18798,71
1334	18530,02
1335	18295,03
1336	18223,41
1337	18007,38
1338	17821,07
1339	17684,85
1340	17565,25
1341	17577,66
1342	17262,86
1343	17548,87
1344	17139,27
1345	16992,52
1346	16717,04
1347	16707,68
1348	16597,44
1349	16537,06
1350	16594,4
1351	16396,39
1352	16350,28
1353	16024,01
1354	16016,52
1355	16021,9
1356	15848,47
1357	15685,1
1358	15645,55
1359	15705,23
1360	15451,05
1361	15716
1362	15373,34
1363	15428,81
1364	15207,16
1365	15157,31
1366	15108,86
1367	15070,48
1368	14709,33
1369	14738,35
1370	14794,06
1371	14668,37
1372	14735,08
1373	14615,48
1374	14330,63
1375	14303,25
1376	14123,96
1377	14108,98
1378	14271,18
1379	14007,17
1380	14097,05
1381	13939,76
1382	13938,36
1383	13858,08
1384	13913,08
1385	13787,39
1386	13682,3
1387	13860,89
1388	13404,48
1389	13582,13
1390	13368,67
1391	13346,9
1392	13389,03
1393	13184
1394	13239,01
1395	13059,49
1396	13061,83
1397	12895,65
1398	13050,36
1399	12698,58
1400	12769,26
1401	12775,35
1402	12749,6
1403	12612,21
1404	12656,21
1405	12616,66
1406	12745,62
1407	12303,49
1408	12412,56
1409	12255,75
1410	12259,26
1411	12207,3
1412	12227,66
1413	12183,89
1414	11938,84
1415	11930,41
1416	11590,1
1417	12111,34
1418	11884,77
1419	11752,06
1420	11809,64
1421	11564,12
1422	11518,24
1423	11756,28
1424	11618,42
1425	11374,3
1426	11677,17
1427	11431,64
1428	11390,45
1429	11251,19
1430	11503,73
1431	11263,83
1432	11390,69
1433	11054,58
1434	11035,16
1435	11087,59
1436	10957,69
1437	10917,19
1438	10883,26
1439	10818,19
1440	10740,95
1441	10785,19
1442	10745,17
1443	10670,5
1444	10609,41
1445	10483,26
1446	10631,65
1447	10513,92
1448	10331,59
1449	10362,02
1450	10395,96
1451	10416,79
1452	10197,25
1453	10167,05
1454	10171,97
1455	10094,5
1456	10174,54
1457	10077,18
1458	10137,33
1459	10048,39
1460	9944,7
1461	9922,94
1462	9828,61
1463	9809,89
1464	9760,97
1465	9721,88
1466	9735,93
1467	9660,09
1468	9405,21
1469	9636,45
1470	9503,51
1471	9691,69
1472	9539,09
1473	9449,21
1474	9404,27
1475	9336,4
1476	9409,42
1477	9367,53
1478	9327,97
1479	9288,88
1480	9133
1481	9108,19
1482	9173,03
1483	9104,22
1484	9011,3
1485	8903,87
1486	8949,27
1487	8953,49
1488	8929,14
1489	8897,08
1490	8814,22
1491	8751,97
1492	8795,97
1493	8790,12
1494	8701,64
1495	8686,66
1496	8621,13
1497	8636,58
1498	8577,6
1499	8609,19
1500	8437,63
1501	8504,8
1502	8360,39
1503	8395,74
1504	8468,76
1505	8299,77
1506	8205,92
1507	8297,2
1508	8206,85
1509	8196,32
1510	8163,79
1511	8100,36
1512	8138,28
1513	8031,08
1514	7823,94
1515	7874,73
1516	7907,97
1517	7758,17
1518	7829,56
1519	7824,41
1520	7708,32
1521	7699,19
1522	7588,02
1523	7509,14
1524	7691,7
1525	7603,7
1526	7464,9
1527	7548,93
1528	7527,4
1529	7544,25
1530	7546,12
1531	7364,5
1532	7372,69
1533	7266,66
1534	7289,83
1535	7262,45
1536	7323,77
1537	7246,3
1538	7263,15
1539	7159,93
1540	7023,71
1541	7061,16
1542	6985,33
1543	6958,18
1544	7018,8
1545	6858,94
1546	6858,24
1547	6809,32
1548	6787,32
1549	6773,98
1550	6686,44
1551	6637,99
1552	6655,55
1553	6634,01
1554	6553,73
1555	6523,07
1556	6430,62
1557	6328,57
1558	6344,26
1559	6347,53
1560	6293,47
1561	6245,49
1562	6209,68
1563	6139,46
1564	6283,87
1565	6151,86
1566	6132,44
1567	6147,18
1568	6030,86
1569	6036,01
1570	5991,3
1571	5902,36
1572	5896,98
1573	5862,11
1574	5773,17
1575	5722,61
1576	5785,34
1577	5730,57
1578	5758,89
1579	5687,03
1580	5544,26
1581	5611,9
1582	5551,75
1583	5370,13
1584	5407,34
1585	5399,15
1586	5527,88
1587	5382,53
1588	5286,33
1589	5291,48
1590	5285,16
1591	5214,25
1592	5147,77
1593	5123,67
1594	5121,56
1595	5152,92
1596	5075,22
1597	5043,15
1598	5003,6
1599	4960,06
1600	4940,64
1601	4849,12
1602	4772,35
1603	4846,78
1604	4813,08
1605	4735,37
1606	4648,77
1607	4556,09
1608	4650,64
1609	4574,34
1610	4446,08
1611	4596,81
1612	4433,44
1613	4462,47
1614	4372,59
1615	4390,38
1616	4376,33
1617	4325,78
1618	4234,26
1619	4294,18
1620	4223,73
1621	4171,77
1622	4141,34
1623	4141,81
1624	4181,6
1625	4162,17
1626	4120,28
1627	4086,58
1628	4087,51
1629	4147,9
1630	4148,37
1631	4075,34
1632	4170,83
1633	4191,9
1634	4256,5
1635	4204,07
1636	4250,88
1637	4276,63
1638	4280,84
1639	4359,95
1640	4361,12
1641	4395,76
1642	4477,44
1643	4522,62
1644	4456,15
1645	4466,21
1646	4581,83
1647	4658,37
1648	4629,58
1649	4608,51
1650	4788,5
1651	4748,01
1652	4865,97
1653	4787,33
1654	4785,46
1655	4883,76
1656	4867,38
1657	4856,61
1658	4848,65
1659	4821,97
1660	4822,91
1661	4690,9
1662	4676,62
1663	4674,28
1664	4611,32
1665	4630,52
1666	4539,23
1667	4498,51
1668	4454,27
1669	4392,72
1670	4384,76
1671	4288,33
1672	4220,45
1673	4046,79
1674	4134,32
1675	4104,13
1676	4012,61
1677	3951,29
1678	3853,46
1679	3816,48
1680	3858,61
1681	3778,09
1682	3747,2
1683	3642,34
1684	3638,83
1685	3555,98
1686	3493,95
1687	3444,57
1688	3370,61
1689	3364,29
1690	3319,58
1691	3270,2
1692	3290,79
1693	3174
1694	3186,41
1695	3121,34
1696	3086,23
1697	3093,95
1698	3103,08
1699	3021,16
1700	2948,37
1701	2994,48
1702	2879,33
1703	2893,84
1704	2913,5
1705	2964,99
1706	2797,64
1707	2878,62
1708	2757,15
1709	2763,24
1710	2718,77
1711	2722,98
1712	2704,72
1713	2602,44
1714	2620
1715	2680,38
1716	2612,51
1717	2507,18
1718	2519,12
1719	2574,36
1720	2436,97
1721	2524,97
1722	2464,12
1723	2427,14
1724	2359,73
1725	2417,07
1726	2404,2
1727	2354,58
1728	2338,43
1729	2315,49
1730	2362,07
1731	2266,34
1732	2236,38
1733	2140,65
1734	2234,28
1735	2326,73
1736	2270,79
1737	2210,87
1738	2124,04
1739	2154,23
1740	2174,12
1741	2187,7
1742	2096,18
1743	2065,05
1744	2134,33
1745	2032,99
1746	1970,73
1747	2041,65
1748	1974,01
1749	1928,13
1750	1962,31
1751	1951,3
1752	1945,92
1753	1946,86
1754	1933,28
1755	1889,75
1756	1977,05
1757	1869,62
1758	1851,83
1759	1854,64
1760	1732,46
1761	1761,49
1762	1732,7
1763	1773,66
1764	1734,81
1765	1718,89
1766	1704,85
1767	1620,59
1768	1653,12
1769	1622,46
1770	1611,22
1771	1643,52
1772	1661,08
1773	1576,35
1774	1509,65
1775	1482,96
1776	1446,22
1777	1469,86
1778	1439,2
1779	1390,75
1780	1342,53
1781	1360,55
1782	1252,19
1783	1170,74
1784	1234,16
1785	1205,84
1786	1203,97
1787	1106,84
1788	1041,07
1789	1038,73
1790	994,03
1791	973,19
1792	1020,94
1793	971,56
1794	1006,2
1795	923,34
1796	893,62
1797	913,98
1798	866
1799	820,12
1800	845,17
1801	827,38
1802	895,49
1803	849,15
1804	805,61
1805	842,59
1806	840,72
1807	824,8
1808	836,51
1809	841,66
1810	870,21
1811	832,29
1812	875,83
1813	839,32
1814	836,98
1815	832,76
1816	855,47
1817	795,55
1818	827,85
1819	843,53
1820	820,83
1821	902,04
1822	777,53
1823	852,66
1824	898,77
1825	876,53
1826	818,02
1827	924,98
1828	878,64
1829	836,04
1830	833,23
1831	836,04
1832	910,94
1833	890,81
1834	854,76
1835	889,4
1836	853,83
1837	900,17
1838	810,53
1839	895,72
1840	850,78
1841	954,7
1842	825,27
1843	834,87
1844	833,7
1845	818,25
1846	881,45
1847	829,25
1848	844,47
1849	830,89
1850	829,72
1851	861,08
1852	813,1
1853	831,83
1854	808,89
1855	843,53
1856	821,53
1857	872,08
1858	810,29
1859	871,15
1860	769,8
1861	809,12
1862	850,32
1863	804,68
1864	783,85
1865	805,14
1866	863,89
1867	744,29
1868	748,74
1869	683,2
1870	775,19
1871	796,25
1872	745,69
1873	755,76
1874	705,44
1875	685,07
1876	720,18
1877	677,82
1878	683,44
1879	686,71
1880	756,46
1881	723,69
1882	756,7
1883	678,99
1884	712,23
1885	742,18
1886	678,29
1887	668,22
1888	717,37
1889	697,25
1890	625,16
1891	690,93
1892	609,01
1893	710,82
1894	691,63
1895	652,78
1896	621,65
1897	664,95
1898	633,82
1899	635,69
1900	546,98
1901	563,84
1902	599,18
1903	560,79
1904	589,11
1905	582,56
1906	585,84
1907	528,49
1908	556,35
1909	511,17
1910	505,09
1911	554
1912	543,94
1913	577,88
1914	537,15
1915	558,92
1916	484,26
1917	525,45
1918	588,18
1919	513,05
1920	528,73
1921	390,4
1922	476,53
1923	474,43
1924	481,68
1925	445,87
1926	439,55
1927	408,42
1928	451,49
1929	438,85
1930	443,3
1931	406,55
1932	455,47
1933	428,79
1934	447,51
1935	416,38
1936	487,77
1937	382,44
1938	447,04
1939	392,27
1940	352,25
1941	470,21
1942	441,89
1943	439,79
1944	332,82
1945	397,42
1946	365,12
1947	413,57
1948	400,47
1949	400,47
1950	362,31
1951	451,96
1952	410,76
1953	353,89
1954	349,44
1955	330,95
1956	316,67
1957	331,19
1958	335,16
1959	318,31
1960	346,63
1961	321,59
1962	365,36
1963	357,4
1964	372,61
1965	345,93
1966	264,71
1967	237,8
1968	361,61
1969	297,95
1970	290,93
1971	285,31
1972	242,25
1973	344,06
1974	282,27
1975	284,61
1976	276,18
1977	311,53
1978	294,67
1979	222,82
1980	238,73
1981	240,37
1982	225,16
1983	252,31
1984	276,42
1985	316,44
1986	183,97
1987	289,06
1988	278,99
1989	167,11
1990	242,25
1991	172,73
1992	207,14
1993	253,71
1994	199,88
1995	273,14
1996	225,39
1997	265,18
1998	221,41
1999	179,99
2000	183,73
2001	184,43
2002	201,05
2003	191,92
2004	184,43
2005	177,88
2006	181,16
2007	220,48
2008	198,95
2009	236,86
2010	158,22
2011	255,59
2012	168,05
2013	246,22
2014	130,84
2015	201,99
2016	147,92
2017	214,39
2018	246,46
2019	236,63
2020	161,73
2021	175,07
2022	153,54
2023	173,2
2024	213,92
2025	154,24
2026	232,18
2027	112,58
2028	179,29
2029	174,6
2030	128,26
2031	153,54
2032	138,09
2033	170,39
2034	120,77
2035	153,54
2036	171,09
2037	172,03
2038	114,22
2039	184,2
2040	46,81
2041	150,03
2042	139,73
2043	178,11
2044	128,03
2045	156,11
2046	156,11
2047	156,11
